演算チャンネル,(1)CA-CH01:Channel01
窓関数,長方形
演算点数,100000
演算モード,リニアスペクトル
微積分設定,微積分しない
演算範囲,最新データ
オーバーオール(dBrms),10.2816
,0dB=1m/s^2
周波数(Hz),データ(dB)
0,-48.487
0.1,-34.7515
0.2,-30.6706
0.3,-27.2103
0.4,-24.195
0.5,-21.3703
0.6,-18.6242
0.7,-15.6048
0.8,-11.5553
0.9,-5.52671
1,12.9896
1.1,-2.16331
1.2,-8.54351
1.3,-11.9997
1.4,-14.2838
1.5,-15.9791
1.6,-17.4355
1.7,-18.6131
1.8,-19.6178
1.9,-20.5051
2,-21.2778
2.1,-21.9754
2.2,-22.6145
2.3,-23.1947
2.4,-23.7263
2.5,-24.2447
2.6,-24.7007
2.7,-25.1401
2.8,-25.5602
2.9,-25.9413
3,-26.319
3.1,-26.6556
3.2,-27.0483
3.3,-27.3301
3.4,-27.6526
3.5,-27.9587
3.6,-28.2396
3.7,-28.5137
3.8,-28.7683
3.9,-29.0631
4,-29.2948
4.1,-29.5486
4.2,-29.7273
4.3,-29.993
4.4,-30.2667
4.5,-30.4355
4.6,-30.6259
4.7,-30.8142
4.8,-31.0509
4.9,-31.2084
5,-31.4655
5.1,-31.5497
5.2,-31.6759
5.3,-31.8727
5.4,-32.1233
5.5,-32.2983
5.6,-32.5513
5.7,-32.6292
5.8,-32.745
5.9,-33.0029
6,-33.0799
6.1,-33.3262
6.2,-33.3992
6.3,-33.5784
6.4,-33.7379
6.5,-33.8519
6.6,-34.0216
6.7,-34.109
6.8,-34.1983
6.9,-34.4245
7,-34.5322
7.1,-34.6021
7.2,-34.7504
7.3,-34.7993
7.4,-35.0154
7.5,-35.122
7.6,-35.2811
7.7,-35.3341
7.8,-35.4386
7.9,-35.5336
8,-35.7106
8.1,-35.7992
8.2,-36.031
8.3,-36.0774
8.4,-36.062
8.5,-36.251
8.6,-36.3376
8.7,-36.4058
8.8,-36.4318
8.9,-36.6483
9,-36.7043
9.1,-36.8553
9.2,-36.8543
9.3,-36.9768
9.4,-37.0916
9.5,-37.1193
9.6,-37.3299
9.7,-37.3309
9.8,-37.4081
9.9,-37.5527
10,-37.6162
10.1,-37.7354
10.2,-37.8662
10.3,-37.9011
10.4,-37.892
10.5,-38.1053
10.6,-38.1978
10.7,-38.1988
10.8,-38.3418
10.9,-38.3881
11,-38.3726
11.1,-38.3825
11.2,-38.5794
11.3,-38.7717
11.4,-38.8226
11.5,-38.8261
11.6,-39.0448
11.7,-38.9198
11.8,-38.9268
11.9,-39.1821
12,-39.1023
12.1,-39.2101
12.2,-39.238
12.3,-39.2409
12.4,-39.4056
12.5,-39.4424
12.6,-39.5039
12.7,-39.6684
12.8,-39.6732
12.9,-39.7818
13,-39.9042
13.1,-39.9949
13.2,-39.7949
13.3,-40.2344
13.4,-40.0303
13.5,-40.0664
13.6,-40.4054
13.7,-40.3374
13.8,-40.3566
13.9,-40.49
14,-40.3351
14.1,-40.2587
14.2,-40.3758
14.3,-40.6611
14.4,-40.5098
14.5,-40.5349
14.6,-40.6809
14.7,-40.8058
14.8,-40.7663
14.9,-40.8606
15,-41.0205
15.1,-40.7734
15.2,-40.6945
15.3,-41.2656
15.4,-41.3852
15.5,-41.537
15.6,-41.7629
15.7,-41.8465
15.8,-41.7075
15.9,-41.3085
16,-41.6315
16.1,-41.5699
16.2,-41.5889
16.3,-41.7542
16.4,-41.5749
16.5,-41.7298
16.6,-41.5944
16.7,-41.9233
16.8,-42.1203
16.9,-41.9958
17,-41.903
17.1,-42.0038
17.2,-41.8784
17.3,-41.9351
17.4,-42.3419
17.5,-42.2378
17.6,-42.1043
17.7,-42.4394
17.8,-42.4157
17.9,-42.5108
18,-42.4938
18.1,-42.5955
18.2,-42.618
18.3,-42.5755
18.4,-42.8998
18.5,-42.6055
18.6,-42.8283
18.7,-42.9839
18.8,-42.854
18.9,-43.0103
19,-42.8783
19.1,-42.7236
19.2,-42.7518
19.3,-43.0101
19.4,-43.1386
19.5,-42.9348
19.6,-42.9648
19.7,-42.9557
19.8,-43.1695
19.9,-43.2098
20,-42.8132
20.1,-43.2181
20.2,-43.3917
20.3,-43.3829
20.4,-43.445
20.5,-43.79
20.6,-43.6578
20.7,-43.5956
20.8,-43.6065
20.9,-43.6306
21,-44.1553
21.1,-43.4567
21.2,-43.7638
21.3,-43.5236
21.4,-43.9738
21.5,-43.704
21.6,-43.9872
21.7,-44.1718
21.8,-43.5855
21.9,-43.5562
22,-44.0289
22.1,-44.2216
22.2,-44.1325
22.3,-43.5341
22.4,-44.0987
22.5,-44.7692
22.6,-44.901
22.7,-43.8978
22.8,-44.1041
22.9,-43.9074
23,-44.7136
23.1,-44.7269
23.2,-44.4295
23.3,-44.3774
23.4,-44.3512
23.5,-44.4157
23.6,-44.6532
23.7,-44.4579
23.8,-44.4054
23.9,-43.9747
24,-44.7111
24.1,-44.8982
24.2,-45.0326
24.3,-44.4949
24.4,-44.5636
24.5,-44.6831
24.6,-44.8691
24.7,-45.1198
24.8,-45.2112
24.9,-44.462
25,-44.6513
25.1,-45.3683
25.2,-45.3453
25.3,-45.0289
25.4,-44.7685
25.5,-44.8348
25.6,-44.9059
25.7,-45.4334
25.8,-45.3495
25.9,-45.1996
26,-44.6028
26.1,-45.1111
26.2,-45.4115
26.3,-45.5484
26.4,-45.0606
26.5,-44.8918
26.6,-45.0613
26.7,-45.5889
26.8,-45.4946
26.9,-45.1361
27,-44.8194
27.1,-45.3046
27.2,-45.8397
27.3,-45.713
27.4,-45.5592
27.5,-45.5023
27.6,-45.3181
27.7,-45.7313
27.8,-45.9776
27.9,-45.867
28,-45.6169
28.1,-45.3969
28.2,-45.7223
28.3,-46.0804
28.4,-46.242
28.5,-45.7327
28.6,-45.4605
28.7,-45.8026
28.8,-46.041
28.9,-46.0772
29,-45.4184
29.1,-45.1838
29.2,-45.6156
29.3,-45.6773
29.4,-46.0521
29.5,-45.8926
29.6,-45.3935
29.7,-45.6492
29.8,-46.3506
29.9,-46.5231
30,-46.2143
30.1,-45.4799
30.2,-45.9658
30.3,-46.6907
30.4,-47.0214
30.5,-46.4409
30.6,-46.1129
30.7,-46.2442
30.8,-46.8078
30.9,-46.7803
31,-46.6957
31.1,-46.0943
31.2,-46.0144
31.3,-46.4039
31.4,-46.7524
31.5,-46.5184
31.6,-46.326
31.7,-46.2437
31.8,-45.7739
31.9,-46.3721
32,-46.5482
32.1,-46.2796
32.2,-45.6839
32.3,-46.0751
32.4,-46.5741
32.5,-46.5407
32.6,-46.6943
32.7,-46.4823
32.8,-46.3131
32.9,-46.5096
33,-47.1135
33.1,-46.9898
33.2,-46.3011
33.3,-46.558
33.4,-47.6382
33.5,-46.9894
33.6,-46.9431
33.7,-46.5089
33.8,-46.6631
33.9,-46.9618
34,-47.3643
34.1,-46.9051
34.2,-46.3207
34.3,-46.6594
34.4,-46.8547
34.5,-46.9522
34.6,-46.6753
34.7,-46.0554
34.8,-46.2374
34.9,-46.8798
35,-47.1549
35.1,-46.998
35.2,-46.3419
35.3,-46.7523
35.4,-46.9739
35.5,-47.2802
35.6,-47.1598
35.7,-46.1968
35.8,-46.4581
35.9,-46.9699
36,-47.288
36.1,-47.9089
36.2,-46.5665
36.3,-46.3832
36.4,-47.742
36.5,-47.814
36.6,-47.0668
36.7,-46.9447
36.8,-46.8393
36.9,-46.8492
37,-47.3549
37.1,-47.8047
37.2,-47.4887
37.3,-47.1211
37.4,-47.12
37.5,-47.0626
37.6,-47.7042
37.7,-47.3189
37.8,-46.5225
37.9,-46.4932
38,-47.4411
38.1,-47.6952
38.2,-47.4027
38.3,-47.5541
38.4,-46.5855
38.5,-47.2877
38.6,-47.5173
38.7,-47.1628
38.8,-47.0054
38.9,-46.3882
39,-48.0327
39.1,-47.5392
39.2,-48.0465
39.3,-46.9223
39.4,-46.884
39.5,-48.1507
39.6,-47.5067
39.7,-47.6944
39.8,-47.4789
39.9,-47.1974
40,-47.3581
40.1,-47.9841
40.2,-48.5983
40.3,-47.1433
40.4,-47.1201
40.5,-47.2273
40.6,-48.4979
40.7,-48.5649
40.8,-47.1526
40.9,-47.0152
41,-47.3031
41.1,-48.0765
41.2,-48.1951
41.3,-47.9016
41.4,-47.0594
41.5,-46.6634
41.6,-47.5792
41.7,-48.6331
41.8,-48.1825
41.9,-46.4555
42,-46.7392
42.1,-48.3044
42.2,-48.0512
42.3,-48.4572
42.4,-47.1493
42.5,-47.3156
42.6,-47.6328
42.7,-48.3114
42.8,-48.7109
42.9,-48.0998
43,-46.5627
43.1,-46.9079
43.2,-48.1226
43.3,-49.363
43.4,-47.3284
43.5,-46.7653
43.6,-46.9812
43.7,-48.4677
43.8,-48.6417
43.9,-47.5848
44,-46.7792
44.1,-47.0705
44.2,-47.7043
44.3,-48.3486
44.4,-48.4171
44.5,-47.1556
44.6,-46.9315
44.7,-47.8992
44.8,-48.8829
44.9,-48.3334
45,-47.2258
45.1,-46.7123
45.2,-47.398
45.3,-48.5005
45.4,-48.7383
45.5,-47.4025
45.6,-46.9432
45.7,-47.1456
45.8,-47.8825
45.9,-48.792
46,-48.16
46.1,-46.9807
46.2,-47.3833
46.3,-47.994
46.4,-48.7893
46.5,-47.6759
46.6,-47.425
46.7,-47.3775
46.8,-47.7568
46.9,-48.9452
47,-48.0683
47.1,-47.578
47.2,-47.0162
47.3,-47.6735
47.4,-48.639
47.5,-48.2938
47.6,-47.6639
47.7,-47.2608
47.8,-47.6523
47.9,-48.6103
48,-48.4199
48.1,-47.4228
48.2,-47.3792
48.3,-47.5757
48.4,-48.6732
48.5,-47.8368
48.6,-47.7142
48.7,-46.99
48.8,-47.1574
48.9,-47.6737
49,-48.7181
49.1,-47.9211
49.2,-46.5875
49.3,-45.1619
49.4,-49.1767
49.5,-48.2251
49.6,-44.9932
49.7,-49.8204
49.8,-48.0031
49.9,-46.2454
