演算チャンネル,(1)CA-CH01:Channel01
窓関数,長方形
演算点数,100000
演算モード,リニアスペクトル
微積分設定,微積分しない
演算範囲,最新データ
オーバーオール(dBrms),16.869
,0dB=1m/s^2
周波数(Hz),データ(dB)
0,-48.4916
0.1,-58.2997
0.2,-56.8373
0.3,-59.0706
0.4,-58.8933
0.5,-56.8327
0.6,-58.2485
0.7,-57.832
0.8,-57.9475
0.9,-58.3849
1,-57.5608
1.1,-57.3666
1.2,-58.315
1.3,-57.7408
1.4,-57.6414
1.5,-58.0712
1.6,-57.9806
1.7,-57.8333
1.8,-58.1702
1.9,-57.7952
2,-58.2185
2.1,-58.0132
2.2,-57.6155
2.3,-58.0732
2.4,-58.0276
2.5,-57.7265
2.6,-57.7903
2.7,-57.9662
2.8,-58.3043
2.9,-58.2517
3,-57.9015
3.1,-57.8456
3.2,-57.9127
3.3,-58.0475
3.4,-58.3862
3.5,-57.7863
3.6,-57.7968
3.7,-57.8871
3.8,-57.6973
3.9,-57.8738
4,-57.9758
4.1,-58.2452
4.2,-57.8927
4.3,-58.104
4.4,-57.9282
4.5,-58.0977
4.6,-58.1757
4.7,-58.5605
4.8,-58.989
4.9,-58.387
5,-57.0912
5.1,-57.9606
5.2,-59.8452
5.3,-59.2047
5.4,-58.3045
5.5,-56.4205
5.6,-57.4505
5.7,-58.5288
5.8,-58.6359
5.9,-58.5162
6,-58.4639
6.1,-58.466
6.2,-57.668
6.3,-58.1416
6.4,-57.9332
6.5,-58.069
6.6,-58.044
6.7,-58.4434
6.8,-57.5401
6.9,-57.8036
7,-58.0906
7.1,-57.8786
7.2,-59.228
7.3,-58.3423
7.4,-57.9931
7.5,-58.6482
7.6,-58.0763
7.7,-57.7505
7.8,-57.3199
7.9,-58.3585
8,-58.1166
8.1,-58.3284
8.2,-57.965
8.3,-57.8327
8.4,-58.0062
8.5,-58.1587
8.6,-58.2841
8.7,-57.9355
8.8,-57.9313
8.9,-58.3823
9,-57.9566
9.1,-57.9246
9.2,-58.1791
9.3,-58.3891
9.4,-57.839
9.5,-57.9052
9.6,-58.059
9.7,-57.8086
9.8,-57.8263
9.9,-58.0322
10,-58.5894
10.1,-58.5181
10.2,-57.8371
10.3,-58.0015
10.4,-57.8919
10.5,-57.7073
10.6,-57.9752
10.7,-58.325
10.8,-58.1179
10.9,-58.0379
11,-57.8219
11.1,-58.7984
11.2,-57.6838
11.3,-58.4124
11.4,-58.7434
11.5,-58.3751
11.6,-56.8612
11.7,-57.3948
11.8,-57.3648
11.9,-57.6149
12,-57.6691
12.1,-57.7277
12.2,-57.3453
12.3,-60.4282
12.4,-56.1716
12.5,-57.1573
12.6,-58.4988
12.7,-58.3251
12.8,-58.6678
12.9,-58.6503
13,-60.377
13.1,-57.4441
13.2,-56.9052
13.3,-57.1819
13.4,-57.335
13.5,-58.5884
13.6,-56.7532
13.7,-57.8001
13.8,-57.4447
13.9,-57.182
14,-56.9407
14.1,-57.3763
14.2,-57.4945
14.3,-58.6095
14.4,-57.8568
14.5,-58.049
14.6,-57.4859
14.7,-57.286
14.8,-58.591
14.9,-58.5005
15,-57.7625
15.1,-56.9531
15.2,-58.2548
15.3,-57.8586
15.4,-59.4348
15.5,-59.4999
15.6,-58.6647
15.7,-58.0415
15.8,-57.4576
15.9,-56.7966
16,-56.6551
16.1,-58.0601
16.2,-58.6782
16.3,-58.547
16.4,-59.5604
16.5,-58.1368
16.6,-57.8478
16.7,-58.1177
16.8,-58.8219
16.9,-58.5121
17,-57.8691
17.1,-58.037
17.2,-58.4414
17.3,-58.766
17.4,-58.4379
17.5,-57.8741
17.6,-58.3304
17.7,-58.294
17.8,-57.9916
17.9,-58.1034
18,-58.4309
18.1,-58.2356
18.2,-58.2737
18.3,-58.2896
18.4,-57.8064
18.5,-57.8392
18.6,-58.392
18.7,-58.2603
18.8,-57.9068
18.9,-58.2641
19,-58.0614
19.1,-57.6808
19.2,-58.2768
19.3,-58.1174
19.4,-58.2882
19.5,-57.9995
19.6,-58.1005
19.7,-57.8463
19.8,-58.2198
19.9,-58.2755
20,-57.9427
20.1,-57.916
20.2,-58.414
20.3,-58.5996
20.4,-58.2784
20.5,-58.3834
20.6,-58.0822
20.7,-58.0581
20.8,-58.189
20.9,-58.4886
21,-58.5078
21.1,-57.8112
21.2,-58.0053
21.3,-58.2115
21.4,-58.2084
21.5,-58.2606
21.6,-57.6035
21.7,-53.6984
21.8,-57.9388
21.9,-57.8885
22,-58.2494
22.1,-57.8134
22.2,-58.0714
22.3,-58.0468
22.4,-57.7104
22.5,-54.2538
22.6,-57.3047
22.7,-57.0962
22.8,-58.3024
22.9,-57.8537
23,-58.605
23.1,-58.2834
23.2,-58.358
23.3,-57.7348
23.4,-57.746
23.5,-57.6657
23.6,-58.8461
23.7,-59.0742
23.8,-55.8519
23.9,-57.0082
24,-57.7752
24.1,-57.84
24.2,-58.4969
24.3,-58.1517
24.4,-57.7405
24.5,-57.5717
24.6,-58.3219
24.7,-58.9316
24.8,-57.3304
24.9,-57.755
25,-57.6812
25.1,-58.1282
25.2,-58.3883
25.3,-58.6306
25.4,-59.1237
25.5,-57.7607
25.6,-57.6604
25.7,-58.591
25.8,-58.5479
25.9,-57.9803
26,-57.6119
26.1,-57.7328
26.2,-57.9872
26.3,-58.6198
26.4,-58.5544
26.5,-57.7486
26.6,-57.3646
26.7,-57.8633
26.8,-57.9465
26.9,-58.5069
27,-58.2375
27.1,-57.6417
27.2,-57.435
27.3,-58.1686
27.4,-58.8825
27.5,-58.2
27.6,-57.5801
27.7,-57.6764
27.8,-57.8444
27.9,-58.7034
28,-59.4241
28.1,-57.8127
28.2,-57.6952
28.3,-57.6331
28.4,-58.2465
28.5,-58.9513
28.6,-58.3397
28.7,-57.1908
28.8,-57.9317
28.9,-58.1906
29,-58.9713
29.1,-58.1767
29.2,-57.4143
29.3,-57.3921
29.4,-57.897
29.5,-58.3877
29.6,-58.6925
29.7,-58.1125
29.8,-57.8834
29.9,-57.2404
30,-58.1943
30.1,-58.7046
30.2,-58.0108
30.3,-58.2024
30.4,-57.4631
30.5,-58.2964
30.6,-58.855
30.7,-58.5737
30.8,-57.6758
30.9,-57.079
31,-57.8273
31.1,-58.5335
31.2,-59.388
31.3,-57.9611
31.4,-57.8323
31.5,-57.8989
31.6,-57.97
31.7,-58.9481
31.8,-58.4357
31.9,-58.4807
32,-57.2872
32.1,-57.6459
32.2,-58.7526
32.3,-58.8689
32.4,-58.1764
32.5,-57.5014
32.6,-57.443
32.7,-57.9922
32.8,-58.5061
32.9,-58.7758
33,-58.0941
33.1,-57.4533
33.2,-57.3438
33.3,-59.3008
33.4,-58.4245
33.5,-57.7167
33.6,-57.0068
33.7,-57.3009
33.8,-58.7354
33.9,-58.9054
34,-57.9853
34.1,-57.0886
34.2,-57.2393
34.3,-58.265
34.4,-59.6619
34.5,-58.4548
34.6,-57.7488
34.7,-57.198
34.8,-57.3167
34.9,-58.5836
35,-58.9108
35.1,-58.0384
35.2,-56.6001
35.3,-56.9098
35.4,-58.4041
35.5,-60.2275
35.6,-59.1027
35.7,-56.253
35.8,-57.131
35.9,-57.5406
36,-59.0337
36.1,-58.3216
36.2,-56.5203
36.3,-56.504
36.4,-57.3326
36.5,-59.1276
36.6,-59.7753
36.7,-57.7678
36.8,-56.3387
36.9,-56.6934
37,-57.9074
37.1,-58.8126
37.2,-58.7084
37.3,-56.0679
37.4,-55.8037
37.5,-58.2676
37.6,-59.883
37.7,-60.2744
37.8,-56.1111
37.9,-55.5889
38,-56.7055
38.1,-59.8919
38.2,-59.4419
38.3,-58.1283
38.4,-56.0688
38.5,-56.1788
38.6,-58.8426
38.7,-59.1047
38.8,-59.2267
38.9,-57.127
39,-56.501
39.1,-59.0257
39.2,-59.8083
39.3,-61.6484
39.4,-57.8924
39.5,-56.012
39.6,-57.5472
39.7,-60.9936
39.8,-61.317
39.9,-57.9385
40,-56.2096
40.1,-57.1815
40.2,-58.791
40.3,-61.6261
40.4,-57.8409
40.5,-56.3336
40.6,-56.5166
40.7,-57.4953
40.8,-60.5662
40.9,-58.8911
41,-57.0202
41.1,-56.5654
41.2,-57.7148
41.3,-58.9808
41.4,-61.057
41.5,-57.8199
41.6,-55.6768
41.7,-57.7104
41.8,-58.7799
41.9,-60.6889
42,-57.6204
42.1,-55.2476
42.2,-56.2161
42.3,-58.2147
42.4,-61.2492
42.5,-58.0877
42.6,-56.1328
42.7,-55.8205
42.8,-57.1027
42.9,-59.8239
43,-59.517
43.1,-57.3387
43.2,-56.2904
43.3,-56.8243
43.4,-59.5669
43.5,-59.9539
43.6,-57.833
43.7,-57.2715
43.8,-56.9128
43.9,-56.8312
44,-59.1281
44.1,-58.6622
44.2,-56.7983
44.3,-56.6298
44.4,-57.6062
44.5,-58.7666
44.6,-60.0074
44.7,-58.2808
44.8,-56.9033
44.9,-56.9045
45,-57.8087
45.1,-59.2754
45.2,-58.6096
45.3,-57.9907
45.4,-56.4604
45.5,-58.13
45.6,-58.795
45.7,-59.6472
45.8,-58.101
45.9,-56.9267
46,-57.3083
46.1,-57.9002
46.2,-59.5458
46.3,-58.9708
46.4,-56.9223
46.5,-56.9369
46.6,-58.1314
46.7,-58.9379
46.8,-59.5159
46.9,-57.6109
47,-56.5382
47.1,-57.4455
47.2,-58.5977
47.3,-60.1046
47.4,-58.5756
47.5,-57.7013
47.6,-57.0038
47.7,-57.8047
47.8,-58.9455
47.9,-58.4066
48,-57.3849
48.1,-57.2124
48.2,-57.5178
48.3,-58.6446
48.4,-59.4237
48.5,-58.1519
48.6,-57.1074
48.7,-57.1285
48.8,-58.3602
48.9,-59.6367
49,-58.974
49.1,-56.7761
49.2,-58.0526
49.3,-58.3256
49.4,-63.7787
49.5,-56.7515
49.6,-58.0138
49.7,-49.3509
49.8,-52.4795
49.9,-53.2466
50,-50.3913
50.1,-62.197
50.2,-60.7326
50.3,-58.6459
50.4,-58.5336
50.5,-60.2666
50.6,-59.6194
50.7,-58.47
50.8,-57.0436
50.9,-57.8739
51,-59.3391
51.1,-59.921
51.2,-58.3132
51.3,-56.7069
51.4,-56.8764
51.5,-58.3535
51.6,-59.4747
51.7,-59.0851
51.8,-57.2861
51.9,-56.8191
52,-57.6436
52.1,-59.2483
52.2,-60.1294
52.3,-58.2724
52.4,-56.3623
52.5,-56.9138
52.6,-58.959
52.7,-60.5251
52.8,-58.7759
52.9,-56.7449
53,-56.5259
53.1,-57.8398
53.2,-60.2169
53.3,-59.7122
53.4,-56.9831
53.5,-55.6549
53.6,-56.9565
53.7,-59.7135
53.8,-60.9175
53.9,-58.0345
54,-56.0879
54.1,-56.7881
54.2,-58.4919
54.3,-60.6839
54.4,-58.391
54.5,-56.2248
54.6,-56.355
54.7,-57.8865
54.8,-61.27
54.9,-59.094
55,-56.6432
55.1,-56.0987
55.2,-57.2793
55.3,-59.702
55.4,-59.5604
55.5,-57.7221
55.6,-56.313
55.7,-56.6392
55.8,-59.5524
55.9,-60.068
56,-58.4771
56.1,-56.9169
56.2,-55.873
56.3,-57.6645
56.4,-60.2008
56.5,-59.1312
56.6,-57.4579
56.7,-56.2769
56.8,-57.1305
56.9,-59.5166
57,-60.1508
57.1,-57.5224
57.2,-56.514
57.3,-56.9397
57.4,-58.6399
57.5,-60.079
57.6,-58.4321
57.7,-56.7935
57.8,-56.9267
57.9,-57.6999
58,-60.4667
58.1,-59.2465
58.2,-57.2117
58.3,-55.8934
58.4,-57.2415
58.5,-59.0077
58.6,-59.9235
58.7,-57.8326
58.8,-56.1526
58.9,-56.7811
59,-58.4322
59.1,-60.1967
59.2,-58.3654
59.3,-56.2613
59.4,-56.6138
59.5,-57.4492
59.6,-59.6431
59.7,-58.7988
59.8,-56.8743
59.9,-56.6315
60,-57.6774
60.1,-58.7781
60.2,-58.9035
60.3,-57.6345
60.4,-56.8864
60.5,-57.5043
60.6,-58.0395
60.7,-58.9704
60.8,-57.968
60.9,-57.3701
61,-57.5687
61.1,-57.8172
61.2,-58.6707
61.3,-58.3237
61.4,-57.9743
61.5,-57.1549
61.6,-57.4699
61.7,-58.2801
61.8,-58.8237
61.9,-58.0716
62,-57.6138
62.1,-57.4676
62.2,-57.7869
62.3,-58.5649
62.4,-58.2885
62.5,-57.316
62.6,-57.6191
62.7,-57.651
62.8,-57.9094
62.9,-58.4655
63,-58.1607
63.1,-57.185
63.2,-57.6336
63.3,-57.901
63.4,-58.4531
63.5,-58.7248
63.6,-57.9715
63.7,-57.5203
63.8,-57.5745
63.9,-58.194
64,-58.4972
64.1,-57.9781
64.2,-57.7423
64.3,-57.1795
64.4,-57.7727
64.5,-58.2809
64.6,-58.5671
64.7,-57.634
64.8,-57.323
64.9,-57.6082
65,-58.0628
65.1,-58.2648
65.2,-58.5008
65.3,-57.7568
65.4,-57.6065
65.5,-57.6017
65.6,-58.2225
65.7,-58.5417
65.8,-57.9607
65.9,-57.3381
66,-57.6443
66.1,-58.4024
66.2,-58.8594
66.3,-58.4886
66.4,-57.241
66.5,-57.0029
66.6,-57.3505
66.7,-58.6492
66.8,-58.6834
66.9,-57.4659
67,-56.8829
67.1,-57.0799
67.2,-58.5698
67.3,-59.1573
67.4,-58.4202
67.5,-57.1482
67.6,-56.6061
67.7,-57.9443
67.8,-59.206
67.9,-60.4573
68,-57.3486
68.1,-56.5844
68.2,-57.0188
68.3,-59.4909
68.4,-59.6484
68.5,-57.3097
68.6,-56.4675
68.7,-56.4017
68.8,-59.4364
68.9,-59.992
69,-57.8969
69.1,-56.9313
69.2,-56.5066
69.3,-58.193
69.4,-60.2475
69.5,-57.9405
69.6,-56.492
69.7,-56.2539
69.8,-58.1139
69.9,-59.4263
70,-59.116
70.1,-57.0151
70.2,-56.5425
70.3,-57.3711
70.4,-59.4795
70.5,-59.9425
70.6,-57.2672
70.7,-56.1344
70.8,-57.1493
70.9,-58.8073
71,-59.3935
71.1,-58.2811
71.2,-57.2461
71.3,-56.8367
71.4,-57.7225
71.5,-59.2139
71.6,-58.7512
71.7,-57.675
71.8,-56.7137
71.9,-57.5488
72,-59.1312
72.1,-59.1612
72.2,-58.5934
72.3,-56.7772
72.4,-56.5581
72.5,-58.2517
72.6,-59.5364
72.7,-58.3811
72.8,-56.6916
72.9,-56.7484
73,-58.0881
73.1,-59.5216
73.2,-59.2088
73.3,-57.182
73.4,-57.143
73.5,-57.3922
73.6,-58.8496
73.7,-59.8711
73.8,-57.8421
73.9,-56.5361
74,-57.881
74.1,-57.6812
74.2,-59.1777
74.3,-57.9723
74.4,-57.1764
74.5,-56.1154
74.6,-57.4795
74.7,-59.2252
74.8,-58.6112
74.9,-57.1787
75,-56.1791
75.1,-57.0961
75.2,-59.1101
75.3,-59.1963
75.4,-57.6204
75.5,-56.8136
75.6,-56.502
75.7,-58.478
75.8,-59.3554
75.9,-58.1455
76,-56.6167
76.1,-56.3998
76.2,-57.4451
76.3,-59.7237
76.4,-59.0721
76.5,-57.8626
76.6,-56.6749
76.7,-56.8814
76.8,-58.2812
76.9,-58.4082
77,-58.0336
77.1,-57.1278
77.2,-57.9855
77.3,-57.9649
77.4,-58.4936
77.5,-57.8082
77.6,-57.018
77.7,-57.3485
77.8,-57.8082
77.9,-59.7227
78,-58.7169
78.1,-57.8558
78.2,-57.6484
78.3,-57.6281
78.4,-60.3064
78.5,-59.3042
78.6,-57.2618
78.7,-56.7158
78.8,-57.4198
78.9,-59.0351
79,-59.1848
79.1,-57.1968
79.2,-57.5525
79.3,-56.8521
79.4,-58.6368
79.5,-58.3012
79.6,-58.212
79.7,-57.7211
79.8,-57.5727
79.9,-57.3346
80,-57.9195
80.1,-58.1865
80.2,-57.9067
80.3,-57.9083
80.4,-57.2323
80.5,-57.735
80.6,-58.3012
80.7,-58.0994
80.8,-57.436
80.9,-57.7614
81,-57.7515
81.1,-58.5047
81.2,-58.014
81.3,-57.6745
81.4,-57.1358
81.5,-57.3594
81.6,-58.2095
81.7,-58.085
81.8,-57.8199
81.9,-57.2667
82,-57.674
82.1,-57.9669
82.2,-58.3658
82.3,-57.9695
82.4,-57.9299
82.5,-57.759
82.6,-57.5673
82.7,-58.1416
82.8,-58.0042
82.9,-57.5558
83,-57.6126
83.1,-57.4877
83.2,-58.0628
83.3,-57.9836
83.4,-58.1055
83.5,-57.7623
83.6,-57.4205
83.7,-57.8163
83.8,-57.954
83.9,-57.8606
84,-57.5998
84.1,-57.39
84.2,-57.4697
84.3,-58.2794
84.4,-58.0278
84.5,-58.1848
84.6,-57.6866
84.7,-57.7763
84.8,-58.1185
84.9,-58.2662
85,-58.0651
85.1,-57.7337
85.2,-57.6359
85.3,-57.8689
85.4,-58.0308
85.5,-58.1692
85.6,-57.7725
85.7,-57.7747
85.8,-57.8687
85.9,-58.1016
86,-58.1348
86.1,-57.696
86.2,-57.5673
86.3,-57.7412
86.4,-57.6268
86.5,-57.9601
86.6,-57.6823
86.7,-57.6935
86.8,-57.6418
86.9,-57.7193
87,-58.0139
87.1,-58.1749
87.2,-57.8114
87.3,-57.4853
87.4,-57.7355
87.5,-57.9869
87.6,-57.9996
87.7,-58.2894
87.8,-57.5137
87.9,-57.4586
88,-58.2662
88.1,-57.7791
88.2,-57.6074
88.3,-57.6677
88.4,-57.5504
88.5,-57.7385
88.6,-57.9164
88.7,-57.9498
88.8,-58.1836
88.9,-57.4822
89,-57.7604
89.1,-57.9258
89.2,-57.9195
89.3,-57.9187
89.4,-57.8416
89.5,-57.656
89.6,-57.6007
89.7,-57.9121
89.8,-57.777
89.9,-57.7307
90,-57.6617
90.1,-57.8693
90.2,-57.9594
90.3,-57.9875
90.4,-57.8805
90.5,-57.689
90.6,-57.6554
90.7,-57.872
90.8,-57.7753
90.9,-58.0614
91,-57.7043
91.1,-57.7663
91.2,-57.8362
91.3,-58.0381
91.4,-57.8614
91.5,-57.7352
91.6,-57.7967
91.7,-57.7478
91.8,-57.7879
91.9,-57.6358
92,-57.837
92.1,-57.7274
92.2,-57.8481
92.3,-57.7648
92.4,-57.7172
92.5,-57.8048
92.6,-57.7521
92.7,-57.6192
92.8,-57.8672
92.9,-57.8096
93,-57.9628
93.1,-57.5716
93.2,-57.4746
93.3,-57.8357
93.4,-57.865
93.5,-57.7696
93.6,-57.8928
93.7,-57.7536
93.8,-57.8372
93.9,-57.7333
94,-58.0407
94.1,-57.5537
94.2,-57.8328
94.3,-57.5655
94.4,-57.809
94.5,-57.9126
94.6,-57.9125
94.7,-57.6964
94.8,-57.6497
94.9,-57.6917
95,-57.8062
95.1,-57.6279
95.2,-57.7686
95.3,-57.6432
95.4,-57.6035
95.5,-57.9876
95.6,-57.6771
95.7,-57.7467
95.8,-57.5337
95.9,-57.7
96,-57.8137
96.1,-57.6736
96.2,-57.8017
96.3,-57.7264
96.4,-57.8876
96.5,-57.7635
96.6,-57.7495
96.7,-57.8171
96.8,-57.7775
96.9,-57.7506
97,-57.5961
97.1,-57.8828
97.2,-58.0241
97.3,-57.7741
97.4,-57.812
97.5,-57.7634
97.6,-57.8237
97.7,-57.9516
97.8,-57.6383
97.9,-57.539
98,-57.8963
98.1,-57.8103
98.2,-57.8711
98.3,-57.6732
98.4,-57.8104
98.5,-57.588
98.6,-57.6493
98.7,-57.6909
98.8,-57.8207
98.9,-57.6995
99,-57.7609
99.1,-57.7314
99.2,-57.7307
99.3,-57.7069
99.4,-57.6748
99.5,-57.8406
99.6,-57.9446
99.7,-57.4802
99.8,-57.8511
99.9,-57.737
100,-57.6965
100.1,-57.8649
100.2,-57.7405
100.3,-57.7979
100.4,-57.7247
100.5,-57.7577
100.6,-57.6855
100.7,-57.697
100.8,-57.754
100.9,-57.6511
101,-57.6454
101.1,-57.6305
101.2,-57.7153
101.3,-57.8004
101.4,-57.7657
101.5,-57.9404
101.6,-57.5959
101.7,-57.7388
101.8,-57.7191
101.9,-57.5703
102,-57.7452
102.1,-57.6423
102.2,-57.8623
102.3,-57.7195
102.4,-57.6643
102.5,-57.6845
102.6,-57.7391
102.7,-57.8027
102.8,-57.823
102.9,-57.7665
103,-57.9205
103.1,-57.8277
103.2,-57.7356
103.3,-57.705
103.4,-57.6541
103.5,-57.7068
103.6,-57.8942
103.7,-57.7893
103.8,-57.7931
103.9,-57.5877
104,-57.6715
104.1,-57.7155
104.2,-57.875
104.3,-57.7027
104.4,-57.5344
104.5,-57.5763
104.6,-57.8264
104.7,-57.7164
104.8,-57.9303
104.9,-57.6043
105,-57.8244
105.1,-57.7231
105.2,-57.781
105.3,-57.8615
105.4,-57.7499
105.5,-57.7428
105.6,-57.6429
105.7,-57.5921
105.8,-57.7592
105.9,-57.6551
106,-57.8664
106.1,-57.6289
106.2,-57.8066
106.3,-57.5738
106.4,-57.7322
106.5,-57.8245
106.6,-57.7017
106.7,-57.6564
106.8,-57.7114
106.9,-57.6734
107,-57.6928
107.1,-57.7376
107.2,-57.7565
107.3,-57.8688
107.4,-57.7699
107.5,-57.9904
107.6,-57.7094
107.7,-57.8075
107.8,-57.7686
107.9,-57.7094
108,-57.9315
108.1,-57.7268
108.2,-57.6797
108.3,-57.6749
108.4,-57.7554
108.5,-57.7744
108.6,-57.8271
108.7,-57.6748
108.8,-57.3953
108.9,-57.5096
109,-57.9723
109.1,-57.5182
109.2,-57.465
109.3,-57.6395
109.4,-57.43
109.5,-57.5751
109.6,-57.4267
109.7,-57.8108
109.8,-57.166
109.9,-58.1287
110,-57.3534
110.1,-57.7728
110.2,-57.8085
110.3,-57.6
110.4,-57.8424
110.5,-57.4691
110.6,-57.6875
110.7,-57.5868
110.8,-57.4641
110.9,-57.7636
111,-57.3897
111.1,-57.8222
111.2,-57.5344
111.3,-57.7755
111.4,-57.4995
111.5,-57.3867
111.6,-57.7736
111.7,-57.6659
111.8,-57.8011
111.9,-57.8305
112,-57.5634
112.1,-57.6676
112.2,-57.4208
112.3,-57.7532
112.4,-57.666
112.5,-57.4696
112.6,-57.7626
112.7,-57.577
112.8,-57.5851
112.9,-57.7057
113,-57.6509
113.1,-57.6101
113.2,-57.3872
113.3,-57.5347
113.4,-57.7613
113.5,-57.9812
113.6,-57.7162
113.7,-57.599
113.8,-57.7058
113.9,-57.4834
114,-57.7696
114.1,-57.7129
114.2,-57.6629
114.3,-57.5202
114.4,-57.6304
114.5,-57.9568
114.6,-57.5254
114.7,-57.7418
114.8,-57.6104
114.9,-57.475
115,-57.4867
115.1,-57.5189
115.2,-57.7888
115.3,-57.421
115.4,-57.392
115.5,-57.4252
115.6,-57.8261
115.7,-57.6189
115.8,-57.4822
115.9,-57.5114
116,-57.4754
116.1,-57.9506
116.2,-57.7502
116.3,-57.698
116.4,-57.514
116.5,-57.7588
116.6,-57.7358
116.7,-57.714
116.8,-57.6603
116.9,-57.3268
117,-57.6737
117.1,-57.5583
117.2,-57.6587
117.3,-57.6956
117.4,-57.48
117.5,-57.4053
117.6,-57.4803
117.7,-57.7102
117.8,-57.6437
117.9,-57.4777
118,-57.3946
118.1,-57.719
118.2,-57.7657
118.3,-57.5358
118.4,-57.4688
118.5,-57.417
118.6,-57.6709
118.7,-57.6583
118.8,-57.7608
118.9,-57.7692
119,-57.6977
119.1,-57.7688
119.2,-57.3728
119.3,-57.7015
119.4,-57.8114
119.5,-57.6263
119.6,-57.564
119.7,-57.3375
119.8,-57.5439
119.9,-58.013
120,-64.4325
120.1,-57.4601
120.2,-57.253
120.3,-57.4853
120.4,-57.8651
120.5,-57.9009
120.6,-57.4829
120.7,-57.4632
120.8,-57.4526
120.9,-57.6332
121,-57.9493
121.1,-57.5239
121.2,-57.5819
121.3,-57.5323
121.4,-57.662
121.5,-57.6378
121.6,-57.6406
121.7,-57.6445
121.8,-57.2865
121.9,-57.5631
122,-57.4422
122.1,-57.8857
122.2,-57.6431
122.3,-57.6516
122.4,-57.4083
122.5,-57.469
122.6,-57.9582
122.7,-57.5602
122.8,-57.548
122.9,-57.4194
123,-57.6134
123.1,-57.7322
123.2,-57.6768
123.3,-57.2886
123.4,-57.7731
123.5,-57.342
123.6,-57.9082
123.7,-57.6368
123.8,-57.4773
123.9,-57.5073
124,-57.4788
124.1,-57.5234
124.2,-57.8064
124.3,-57.4885
124.4,-57.5739
124.5,-57.1956
124.6,-57.6392
124.7,-57.8007
124.8,-57.7566
124.9,-57.6398
125,-57.3423
125.1,-57.5672
125.2,-57.5252
125.3,-57.8085
125.4,-57.7895
125.5,-57.44
125.6,-57.3618
125.7,-57.5665
125.8,-57.8772
125.9,-57.8562
126,-57.4507
126.1,-57.1941
126.2,-57.573
126.3,-57.5542
126.4,-57.703
126.5,-57.5686
126.6,-57.392
126.7,-57.3314
126.8,-57.7157
126.9,-57.6707
127,-57.4294
127.1,-57.6889
127.2,-57.3858
127.3,-57.8133
127.4,-57.7969
127.5,-57.7407
127.6,-57.3701
127.7,-57.2441
127.8,-57.3853
127.9,-57.944
128,-57.6813
128.1,-57.5171
128.2,-57.3116
128.3,-57.4463
128.4,-57.6113
128.5,-57.6764
128.6,-57.6499
128.7,-57.3967
128.8,-57.3524
128.9,-57.4586
129,-57.7711
129.1,-57.5908
129.2,-57.4455
129.3,-57.5823
129.4,-57.2376
129.5,-57.5267
129.6,-57.5929
129.7,-57.4466
129.8,-57.235
129.9,-57.2881
130,-57.5794
130.1,-57.6369
130.2,-57.472
130.3,-57.3651
130.4,-57.2715
130.5,-57.4158
130.6,-57.4786
130.7,-57.5695
130.8,-57.3614
130.9,-57.2626
131,-57.3941
131.1,-57.3809
131.2,-57.5863
131.3,-57.5014
131.4,-57.2867
131.5,-57.2773
131.6,-56.3197
131.7,-58.1621
131.8,-58.1679
131.9,-57.3387
132,-57.8264
132.1,-57.5018
132.2,-57.7034
132.3,-57.7542
132.4,-57.5104
132.5,-57.1346
132.6,-57.461
132.7,-57.606
132.8,-57.7161
132.9,-57.392
133,-57.1652
133.1,-57.3682
133.2,-57.65
133.3,-57.8092
133.4,-57.8178
133.5,-57.6266
133.6,-57.3221
133.7,-57.5274
133.8,-57.7448
133.9,-57.9505
134,-57.3778
134.1,-57.3348
134.2,-57.3816
134.3,-57.6383
134.4,-57.6499
134.5,-57.8303
134.6,-57.0863
134.7,-57.1027
134.8,-57.6374
134.9,-57.7574
135,-57.7635
135.1,-57.1095
135.2,-57.3489
135.3,-57.4152
135.4,-57.624
135.5,-57.4011
135.6,-57.3466
135.7,-57.4295
135.8,-57.2899
135.9,-57.32
136,-57.545
136.1,-57.7338
136.2,-57.5167
136.3,-57.1825
136.4,-57.3758
136.5,-57.7641
136.6,-57.6237
136.7,-57.448
136.8,-57.029
136.9,-57.622
137,-57.8719
137.1,-57.7965
137.2,-57.4076
137.3,-57.2774
137.4,-57.1847
137.5,-57.6661
137.6,-57.8808
137.7,-57.3973
137.8,-57.5115
137.9,-57.1475
138,-57.9638
138.1,-57.617
138.2,-57.5684
138.3,-57.3276
138.4,-57.1641
138.5,-57.593
138.6,-57.5551
138.7,-57.8099
138.8,-57.1085
138.9,-57.1621
139,-57.3094
139.1,-57.5259
139.2,-58.0009
139.3,-57.6562
139.4,-56.9452
139.5,-57.3003
139.6,-57.7179
139.7,-57.7609
139.8,-57.6704
139.9,-56.8527
140,-57.5309
140.1,-57.4889
140.2,-57.5469
140.3,-57.6598
140.4,-57.3335
140.5,-57.2488
140.6,-57.6902
140.7,-57.471
140.8,-57.4941
140.9,-57.34
141,-57.1177
141.1,-57.2807
141.2,-57.3571
141.3,-57.6817
141.4,-57.397
141.5,-57.158
141.6,-57.0321
141.7,-57.4446
141.8,-57.387
141.9,-57.582
142,-57.3841
142.1,-57.4403
142.2,-57.2028
142.3,-57.5552
142.4,-57.6781
142.5,-57.3135
142.6,-57.2299
142.7,-57.3107
142.8,-57.4285
142.9,-57.5621
143,-57.3258
143.1,-57.371
143.2,-57.2968
143.3,-57.5554
143.4,-57.4337
143.5,-57.3554
143.6,-57.0029
143.7,-57.3227
143.8,-57.5398
143.9,-57.3394
144,-57.3067
144.1,-57.2329
144.2,-57.2761
144.3,-57.4094
144.4,-57.4253
144.5,-57.3447
144.6,-57.243
144.7,-57.3687
144.8,-57.3445
144.9,-57.496
145,-57.6879
145.1,-57.6001
145.2,-57.4032
145.3,-57.1579
145.4,-57.2964
145.5,-57.5434
145.6,-57.4767
145.7,-57.2717
145.8,-57.2376
145.9,-57.229
146,-57.4871
146.1,-57.6073
146.2,-57.1821
146.3,-57.1659
146.4,-57.2398
146.5,-57.6563
146.6,-57.2892
146.7,-57.4741
146.8,-57.1496
146.9,-57.3233
147,-57.4691
147.1,-57.515
147.2,-57.4511
147.3,-57.3893
147.4,-57.3157
147.5,-57.5279
147.6,-57.2914
147.7,-57.4008
147.8,-57.5442
147.9,-57.1069
148,-57.3904
148.1,-57.5897
148.2,-57.3915
148.3,-57.3896
148.4,-57.1049
148.5,-57.5533
148.6,-57.5418
148.7,-57.1903
148.8,-57.5944
148.9,-57.3953
149,-57.1908
149.1,-57.4115
149.2,-57.3913
149.3,-57.6279
149.4,-57.45
149.5,-57.126
149.6,-57.2684
149.7,-57.4896
149.8,-57.3095
149.9,-57.3414
150,-57.2158
150.1,-57.142
150.2,-57.5025
150.3,-57.4012
150.4,-57.3006
150.5,-57.3263
150.6,-57.1587
150.7,-57.2518
150.8,-57.4638
150.9,-57.2826
151,-57.2966
151.1,-57.097
151.2,-57.5142
151.3,-57.6024
151.4,-57.4987
151.5,-56.9792
151.6,-57.249
151.7,-57.3019
151.8,-57.4479
151.9,-57.3413
152,-57.3256
152.1,-57.2196
152.2,-57.4034
152.3,-57.1932
152.4,-57.2778
152.5,-57.2155
152.6,-57.3543
152.7,-57.4025
152.8,-57.1383
152.9,-57.1588
153,-57.5155
153.1,-57.2648
153.2,-57.1679
153.3,-57.3437
153.4,-57.1752
153.5,-57.2474
153.6,-57.1206
153.7,-57.0616
153.8,-57.2239
153.9,-57.7211
154,-57.3677
154.1,-57.2244
154.2,-57.0574
154.3,-57.1421
154.4,-57.2991
154.5,-57.4125
154.6,-57.2067
154.7,-57.2375
154.8,-57.2389
154.9,-57.2636
155,-57.3998
155.1,-57.3258
155.2,-57.3141
155.3,-57.1795
155.4,-57.324
155.5,-57.3824
155.6,-57.2763
155.7,-57.2002
155.8,-57.3236
155.9,-57.1923
156,-57.3146
156.1,-57.2936
156.2,-57.2735
156.3,-57.4221
156.4,-57.2623
156.5,-57.2948
156.6,-57.2102
156.7,-57.1085
156.8,-57.1288
156.9,-57.1926
157,-57.1694
157.1,-57.3227
157.2,-57.2354
157.3,-57.3024
157.4,-57.2057
157.5,-57.1974
157.6,-57.3503
157.7,-57.143
157.8,-57.1152
157.9,-57.3033
158,-57.1352
158.1,-57.1976
158.2,-57.259
158.3,-57.318
158.4,-57.2651
158.5,-57.0407
158.6,-57.2211
158.7,-57.1954
158.8,-57.2796
158.9,-57.1008
159,-57.1552
159.1,-57.2797
159.2,-57.3416
159.3,-57.153
159.4,-57.2782
159.5,-57.1399
159.6,-57.2515
159.7,-57.1411
159.8,-57.2054
159.9,-57.0951
160,-57.3205
160.1,-57.1868
160.2,-57.176
160.3,-57.123
160.4,-57.2101
160.5,-57.1712
160.6,-57.2708
160.7,-57.3324
160.8,-57.2106
160.9,-57.0401
161,-57.2229
161.1,-57.1153
161.2,-57.24
161.3,-57.3036
161.4,-57.1913
161.5,-57.1621
161.6,-57.32
161.7,-57.1097
161.8,-57.202
161.9,-57.0841
162,-57.1434
162.1,-57.2109
162.2,-57.2691
162.3,-57.1506
162.4,-57.1551
162.5,-57.1366
162.6,-57.134
162.7,-57.2335
162.8,-57.1593
162.9,-57.1634
163,-57.1726
163.1,-57.1853
163.2,-57.0738
163.3,-57.1975
163.4,-57.2876
163.5,-57.1479
163.6,-57.142
163.7,-57.2914
163.8,-56.9828
163.9,-57.1255
164,-57.1047
164.1,-57.0638
164.2,-57.0695
164.3,-57.123
164.4,-57.3068
164.5,-57.065
164.6,-57.212
164.7,-56.9798
164.8,-57.024
164.9,-57.0371
165,-57.0679
165.1,-57.0769
165.2,-57.0711
165.3,-57.1962
165.4,-57.0939
165.5,-57.2415
165.6,-57.0392
165.7,-56.974
165.8,-57.2292
165.9,-57.1259
166,-57.0748
166.1,-57.1602
166.2,-57.123
166.3,-57.1826
166.4,-57.0241
166.5,-57.0671
166.6,-57.1098
166.7,-57.1375
166.8,-57.0301
166.9,-56.9458
167,-57.1803
167.1,-57.08
167.2,-57.1828
167.3,-57.167
167.4,-57.108
167.5,-57.2209
167.6,-57.1542
167.7,-57.1271
167.8,-57.2425
167.9,-57.0349
168,-57.1381
168.1,-57.007
168.2,-57.0233
168.3,-57.1124
168.4,-57.2288
168.5,-57.1835
168.6,-57.1992
168.7,-57.0948
168.8,-56.9899
168.9,-57.2044
169,-56.9489
169.1,-57.1155
169.2,-57.1068
169.3,-57.1276
169.4,-57.0902
169.5,-57.1757
169.6,-57.2589
169.7,-57.1605
169.8,-57.1441
169.9,-57.0546
170,-56.9847
170.1,-57.1375
170.2,-57.2554
170.3,-57.0421
170.4,-57.2762
170.5,-57.0743
170.6,-57.1002
170.7,-57.1174
170.8,-57.1382
170.9,-57.072
171,-56.944
171.1,-57.1056
171.2,-57.0763
171.3,-56.8963
171.4,-56.957
171.5,-57.0245
171.6,-56.9138
171.7,-57.0199
171.8,-57.1913
171.9,-56.9478
172,-56.9816
172.1,-57.0094
172.2,-56.9682
172.3,-57.0794
172.4,-57.0263
172.5,-57.1105
172.6,-56.9775
172.7,-57.1636
172.8,-56.9331
172.9,-57.137
173,-56.8954
173.1,-57.0715
173.2,-57.0853
173.3,-57.0367
173.4,-56.9624
173.5,-57.0017
173.6,-57.0021
173.7,-57.0543
173.8,-56.988
173.9,-57.0767
174,-57.0056
174.1,-57.0609
174.2,-56.9917
174.3,-57.1181
174.4,-56.9585
174.5,-56.9651
174.6,-57.0612
174.7,-57.0449
174.8,-57.1498
174.9,-56.9724
175,-57.05
175.1,-56.8615
175.2,-56.8428
175.3,-56.9993
175.4,-56.9688
175.5,-56.9393
175.6,-57.1053
175.7,-56.9932
175.8,-57.1257
175.9,-57.0811
176,-56.8417
176.1,-56.9387
176.2,-57.0024
176.3,-57.1493
176.4,-57.0562
176.5,-56.9868
176.6,-57.0983
176.7,-57.0351
176.8,-56.9467
176.9,-57.0862
177,-57.0298
177.1,-56.9586
177.2,-56.927
177.3,-56.9478
177.4,-56.8819
177.5,-56.9355
177.6,-56.934
177.7,-56.9168
177.8,-56.8882
177.9,-56.9667
178,-57.0317
178.1,-56.9768
178.2,-57.0487
178.3,-56.9622
178.4,-57.0182
178.5,-56.9605
178.6,-57.0055
178.7,-57.1381
178.8,-56.8401
178.9,-56.9442
179,-56.9118
179.1,-56.9929
179.2,-56.9433
179.3,-56.9501
179.4,-56.9881
179.5,-57.0908
179.6,-57.0405
179.7,-56.8958
179.8,-56.8721
179.9,-56.9309
180,-56.9524
180.1,-56.8855
180.2,-56.8825
180.3,-57.0126
180.4,-56.9713
180.5,-56.8144
180.6,-56.8334
180.7,-57.0378
180.8,-56.9667
180.9,-56.9912
181,-56.9053
181.1,-57.0185
181.2,-56.9521
181.3,-56.9949
181.4,-56.9331
181.5,-56.8508
181.6,-56.9021
181.7,-56.9517
181.8,-56.905
181.9,-56.9162
182,-56.9483
182.1,-56.9524
182.2,-56.8316
182.3,-56.988
182.4,-56.8494
182.5,-56.9824
182.6,-56.8099
182.7,-56.8709
182.8,-56.9488
182.9,-57.0741
183,-56.8754
183.1,-56.7509
183.2,-57.0485
183.3,-57.0552
183.4,-56.7587
183.5,-56.8999
183.6,-56.9435
183.7,-56.9036
183.8,-56.8493
183.9,-56.8696
184,-56.9254
184.1,-56.6908
184.2,-56.9553
184.3,-57.0234
184.4,-57.014
184.5,-56.9451
184.6,-56.8292
184.7,-56.813
184.8,-56.8197
184.9,-56.8788
185,-56.939
185.1,-56.8112
185.2,-56.8349
185.3,-56.8943
185.4,-56.941
185.5,-56.9608
185.6,-56.9348
185.7,-56.9294
185.8,-56.8328
185.9,-56.8138
186,-56.953
186.1,-56.8017
186.2,-56.8781
186.3,-56.897
186.4,-56.9132
186.5,-56.8859
186.6,-56.7802
186.7,-57.0316
186.8,-56.8991
186.9,-56.9109
187,-56.8417
187.1,-56.7989
187.2,-56.9104
187.3,-56.7583
187.4,-56.8887
187.5,-56.8856
187.6,-56.9232
187.7,-56.7527
187.8,-56.7632
187.9,-56.8676
188,-56.7877
188.1,-57.2
188.2,-56.759
188.3,-56.8197
188.4,-56.7203
188.5,-56.8399
188.6,-56.8135
188.7,-56.829
188.8,-56.8133
188.9,-56.9225
189,-56.7758
189.1,-56.7288
189.2,-56.8291
189.3,-56.6593
189.4,-56.7684
189.5,-56.8015
189.6,-56.7593
189.7,-56.7796
189.8,-56.8676
189.9,-56.8607
190,-56.8876
190.1,-56.7881
190.2,-56.9213
190.3,-56.8748
190.4,-56.8653
190.5,-56.9128
190.6,-57.1309
190.7,-56.6348
190.8,-56.7307
190.9,-56.7708
191,-56.8377
191.1,-56.7022
191.2,-56.6718
191.3,-56.7725
191.4,-56.8177
191.5,-56.7828
191.6,-56.7744
191.7,-56.6365
191.8,-56.7144
191.9,-56.7285
192,-56.7775
192.1,-56.7066
192.2,-56.6934
192.3,-56.6974
192.4,-56.7187
192.5,-56.8764
192.6,-56.6709
192.7,-56.7211
192.8,-56.7071
192.9,-56.6875
193,-56.6204
193.1,-56.6918
193.2,-56.6149
193.3,-56.7012
193.4,-56.6573
193.5,-56.7507
193.6,-56.5929
193.7,-56.7541
193.8,-56.7915
193.9,-56.8102
194,-56.6668
194.1,-56.5236
194.2,-56.6818
194.3,-56.6401
194.4,-56.7092
194.5,-56.567
194.6,-56.7126
194.7,-56.7165
194.8,-56.5741
194.9,-56.6881
195,-56.5788
195.1,-56.5843
195.2,-56.6274
195.3,-56.5459
195.4,-56.6235
195.5,-56.5312
195.6,-56.2522
195.7,-57.0222
195.8,-56.76
195.9,-56.7641
196,-56.8459
196.1,-56.6928
196.2,-56.7717
196.3,-56.6872
196.4,-56.55
196.5,-56.6644
196.6,-56.6255
196.7,-56.5065
196.8,-56.5949
196.9,-56.4771
197,-56.5913
197.1,-56.6373
197.2,-56.6967
197.3,-56.6635
197.4,-56.5913
197.5,-56.5694
197.6,-56.3922
197.7,-56.5912
197.8,-56.4545
197.9,-56.4021
198,-56.3444
198.1,-55.8564
198.2,-57.733
198.3,-56.9338
198.4,-56.6
198.5,-56.6864
198.6,-56.6462
198.7,-56.6276
198.8,-56.477
198.9,-56.4736
199,-56.6573
199.1,-56.5929
199.2,-56.7181
199.3,-56.3877
199.4,-56.4549
199.5,-56.3038
199.6,-56.3367
199.7,-56.1147
199.8,-56.0735
199.9,-56.0482
200,-55.9202
200.1,-55.631
200.2,-55.2303
200.3,-54.7187
200.4,-53.5652
200.5,-51.4023
200.6,-44.9115
200.7,-39.1192
200.8,-50.5474
200.9,-53.8616
201,-55.2265
201.1,-55.7744
201.2,-56.0797
201.3,-56.4923
201.4,-56.4395
201.5,-56.5311
201.6,-56.5937
201.7,-56.5595
201.8,-56.6139
201.9,-56.6185
202,-56.5165
202.1,-56.7011
202.2,-56.6679
202.3,-56.6579
202.4,-56.6954
202.5,-56.742
202.6,-56.7095
202.7,-56.7394
202.8,-56.5018
202.9,-56.6047
203,-56.6092
203.1,-56.3333
203.2,-57.8583
203.3,-56.9368
203.4,-56.7965
203.5,-56.8047
203.6,-56.7786
203.7,-56.7796
203.8,-56.7346
203.9,-56.6829
204,-56.6667
204.1,-56.6721
204.2,-56.6311
204.3,-56.7189
204.4,-56.6037
204.5,-56.6376
204.6,-56.6086
204.7,-56.6017
204.8,-56.6363
204.9,-56.6354
205,-56.6566
205.1,-56.6306
205.2,-56.6775
205.3,-56.6842
205.4,-56.6088
205.5,-56.6371
205.6,-56.6652
205.7,-57.3101
205.8,-56.6727
205.9,-56.5785
206,-56.6094
206.1,-56.7202
206.2,-56.6533
206.3,-56.6957
206.4,-56.6953
206.5,-56.6393
206.6,-56.6305
206.7,-56.6685
206.8,-56.6277
206.9,-56.6826
207,-56.5807
207.1,-56.6652
207.2,-56.7262
207.3,-56.5361
207.4,-56.6805
207.5,-56.6623
207.6,-56.5522
207.7,-56.5571
207.8,-56.6927
207.9,-56.5428
208,-56.5686
208.1,-56.624
208.2,-56.7037
208.3,-56.6765
208.4,-56.5699
208.5,-56.608
208.6,-56.6743
208.7,-56.6732
208.8,-56.6376
208.9,-56.5788
209,-56.5504
209.1,-56.574
209.2,-56.5091
209.3,-56.5832
209.4,-56.5354
209.5,-56.5151
209.6,-56.5306
209.7,-56.5428
209.8,-56.5438
209.9,-56.4916
210,-56.3993
210.1,-56.5834
210.2,-56.507
210.3,-56.476
210.4,-56.5537
210.5,-56.6005
210.6,-56.5661
210.7,-56.1999
210.8,-56.4452
210.9,-56.4278
211,-56.5366
211.1,-56.5383
211.2,-56.5352
211.3,-56.4141
211.4,-56.4202
211.5,-56.5106
211.6,-56.4989
211.7,-56.4027
211.8,-56.5041
211.9,-56.5606
212,-56.396
212.1,-56.5831
212.2,-56.5195
212.3,-56.4691
212.4,-56.4519
212.5,-56.4681
212.6,-56.5969
212.7,-56.4474
212.8,-56.4755
212.9,-56.5257
213,-56.3894
213.1,-56.4807
213.2,-56.1795
213.3,-56.4146
213.4,-56.3819
213.5,-56.4184
213.6,-56.4966
213.7,-56.5336
213.8,-56.4389
213.9,-56.4563
214,-56.3766
214.1,-56.5309
214.2,-56.4805
214.3,-56.4466
214.4,-56.5142
214.5,-56.5447
214.6,-56.531
214.7,-56.4608
214.8,-56.502
214.9,-56.5176
215,-56.4508
215.1,-56.5676
215.2,-56.4774
215.3,-56.3398
215.4,-56.5042
215.5,-56.4144
215.6,-56.4606
215.7,-56.4033
215.8,-56.5246
215.9,-56.4171
216,-56.5667
216.1,-56.3655
216.2,-56.3488
216.3,-56.3524
216.4,-56.3378
216.5,-56.4749
216.6,-56.4974
216.7,-56.42
216.8,-56.407
216.9,-56.5099
217,-56.4025
217.1,-56.5099
217.2,-56.4137
217.3,-56.4724
217.4,-56.412
217.5,-56.4095
217.6,-56.4083
217.7,-56.5186
217.8,-56.419
217.9,-56.4437
218,-56.3879
218.1,-56.4636
218.2,-56.5994
218.3,-56.2869
218.4,-56.3342
218.5,-56.3501
218.6,-56.2969
218.7,-56.41
218.8,-56.3924
218.9,-56.4359
219,-56.3226
219.1,-56.2563
219.2,-56.4108
219.3,-56.4238
219.4,-56.3765
219.5,-56.2592
219.6,-56.3637
219.7,-56.3809
219.8,-56.4551
219.9,-56.2727
220,-56.3508
220.1,-56.2741
220.2,-56.3917
220.3,-56.4585
220.4,-56.3772
220.5,-56.3671
220.6,-56.3332
220.7,-56.5853
220.8,-56.2171
220.9,-56.2766
221,-56.3767
221.1,-56.233
221.2,-56.3234
221.3,-56.3738
221.4,-56.2684
221.5,-56.3557
221.6,-56.3848
221.7,-56.3189
221.8,-56.2569
221.9,-56.3407
222,-56.3134
222.1,-56.3581
222.2,-56.2899
222.3,-56.3643
222.4,-56.1938
222.5,-56.4661
222.6,-56.3804
222.7,-56.3469
222.8,-56.4402
222.9,-56.3484
223,-56.2624
223.1,-56.2852
223.2,-56.4108
223.3,-56.1641
223.4,-56.2916
223.5,-56.2746
223.6,-56.2084
223.7,-56.338
223.8,-56.357
223.9,-56.3825
224,-56.3599
224.1,-56.269
224.2,-56.2298
224.3,-56.2722
224.4,-56.3093
224.5,-56.2806
224.6,-56.2808
224.7,-56.2772
224.8,-56.2147
224.9,-56.2306
225,-56.2291
225.1,-56.3035
225.2,-56.2464
225.3,-56.2575
225.4,-56.1937
225.5,-56.1171
225.6,-56.1308
225.7,-56.1817
225.8,-56.2755
225.9,-56.3285
226,-56.293
226.1,-56.207
226.2,-56.2231
226.3,-56.2258
226.4,-56.2434
226.5,-56.3063
226.6,-56.131
226.7,-56.3295
226.8,-56.253
226.9,-56.1729
227,-56.2066
227.1,-56.1706
227.2,-56.2378
227.3,-56.299
227.4,-56.1784
227.5,-56.2869
227.6,-56.1927
227.7,-56.1302
227.8,-56.2014
227.9,-56.2692
228,-56.1808
228.1,-56.1747
228.2,-56.1536
228.3,-56.3347
228.4,-56.1825
228.5,-56.2055
228.6,-56.1522
228.7,-56.2123
228.8,-56.1675
228.9,-56.2418
229,-56.2104
229.1,-56.2329
229.2,-56.2484
229.3,-56.1266
229.4,-56.1954
229.5,-56.1432
229.6,-56.1744
229.7,-56.1578
229.8,-56.0859
229.9,-56.2033
230,-56.2245
230.1,-56.233
230.2,-56.2468
230.3,-56.1786
230.4,-56.15
230.5,-56.2151
230.6,-56.1957
230.7,-56.134
230.8,-56.1102
230.9,-56.2166
231,-56.2481
231.1,-56.0613
231.2,-56.1487
231.3,-56.1642
231.4,-56.1244
231.5,-56.1918
231.6,-56.1568
231.7,-56.1131
231.8,-56.2444
231.9,-56.171
232,-56.1665
232.1,-56.1282
232.2,-56.1291
232.3,-56.1494
232.4,-56.1789
232.5,-56.1009
232.6,-56.1411
232.7,-56.0508
232.8,-56.1613
232.9,-56.0451
233,-56.1352
233.1,-56.0383
233.2,-56.0775
233.3,-56.1427
233.4,-56.2001
233.5,-56.0817
233.6,-56.0453
233.7,-56.0759
233.8,-56.1661
233.9,-56.1436
234,-56.1189
234.1,-56.1007
234.2,-56.0849
234.3,-56.1096
234.4,-56.0741
234.5,-56.163
234.6,-56.1147
234.7,-56.034
234.8,-56.0369
234.9,-56.187
235,-56.0678
235.1,-56.0797
235.2,-56.1324
235.3,-56.0334
235.4,-56.0474
235.5,-55.9971
235.6,-56.0801
235.7,-55.9765
235.8,-56.0069
235.9,-56.029
236,-55.9992
236.1,-56.0901
236.2,-56.0098
236.3,-56.0334
236.4,-55.9788
236.5,-56.1608
236.6,-55.9718
236.7,-55.9408
236.8,-55.9504
236.9,-56.067
237,-55.9241
237.1,-56.0564
237.2,-56.0507
237.3,-56.1004
237.4,-56.0414
237.5,-55.954
237.6,-55.9779
237.7,-55.9729
237.8,-56.0215
237.9,-55.9981
238,-56.0513
238.1,-55.9888
238.2,-55.992
238.3,-55.9465
238.4,-56.02
238.5,-55.9124
238.6,-56.0821
238.7,-55.9705
238.8,-55.9389
238.9,-55.9933
239,-56.0693
239.1,-55.9877
239.2,-55.9429
239.3,-55.9687
239.4,-55.9925
239.5,-56.0441
239.6,-55.9913
239.7,-55.9776
239.8,-56.0019
239.9,-55.8826
240,-55.9611
240.1,-55.9749
240.2,-56.0294
240.3,-55.9526
240.4,-55.9147
240.5,-55.8646
240.6,-56.0371
240.7,-56.0243
240.8,-56.0711
240.9,-55.9499
241,-55.8834
241.1,-56.0252
241.2,-55.8992
241.3,-55.9953
241.4,-55.8965
241.5,-55.9043
241.6,-55.8632
241.7,-55.8969
241.8,-56.0117
241.9,-56.0333
242,-55.9754
242.1,-55.9302
242.2,-55.981
242.3,-55.9499
242.4,-55.9223
242.5,-55.8534
242.6,-55.9111
242.7,-55.8652
242.8,-55.9389
242.9,-55.9404
243,-55.8457
243.1,-55.9411
243.2,-55.9499
243.3,-55.9969
243.4,-55.863
243.5,-55.8681
243.6,-55.9526
243.7,-55.9128
243.8,-55.9045
243.9,-55.7949
244,-55.8458
244.1,-55.8391
244.2,-56.0497
244.3,-55.8296
244.4,-55.886
244.5,-55.8749
244.6,-55.8502
244.7,-55.8463
244.8,-55.9598
244.9,-55.9004
245,-55.8669
245.1,-55.9148
245.2,-55.8328
245.3,-55.8042
245.4,-55.9231
245.5,-55.9013
245.6,-55.8358
245.7,-55.8129
245.8,-55.8575
245.9,-55.8654
246,-55.7349
246.1,-55.8989
246.2,-55.8578
246.3,-55.7869
246.4,-55.9263
246.5,-55.7921
246.6,-55.7699
246.7,-55.832
246.8,-55.7258
246.9,-55.8343
247,-55.8958
247.1,-55.8861
247.2,-55.8428
247.3,-55.802
247.4,-55.8795
247.5,-55.7622
247.6,-55.8523
247.7,-55.8204
247.8,-55.7577
247.9,-55.8587
248,-55.8043
248.1,-55.7731
248.2,-55.8238
248.3,-55.695
248.4,-55.7346
248.5,-55.8021
248.6,-55.7326
248.7,-55.728
248.8,-55.7461
248.9,-55.8576
249,-55.795
249.1,-55.835
249.2,-55.8376
249.3,-55.7739
249.4,-55.6928
249.5,-55.769
249.6,-55.884
249.7,-55.7763
249.8,-55.8187
249.9,-55.7728
250,-55.7327
250.1,-55.6644
250.2,-55.5913
250.3,-56.1161
250.4,-55.7514
250.5,-55.69
250.6,-55.796
250.7,-55.6926
250.8,-55.6108
250.9,-55.7169
251,-55.6836
251.1,-55.669
251.2,-55.65
251.3,-55.798
251.4,-55.7342
251.5,-55.7852
251.6,-55.6811
251.7,-55.7001
251.8,-55.6446
251.9,-55.7303
252,-55.7113
252.1,-55.696
252.2,-55.6928
252.3,-55.6514
252.4,-55.6927
252.5,-55.6952
252.6,-55.6996
252.7,-55.7368
252.8,-55.7581
252.9,-55.7289
253,-55.6702
253.1,-55.7614
253.2,-55.6367
253.3,-55.7298
253.4,-55.5876
253.5,-55.6615
253.6,-55.7122
253.7,-55.82
253.8,-55.6087
253.9,-55.6467
254,-55.6043
254.1,-55.6272
254.2,-55.645
254.3,-55.6711
254.4,-55.6823
254.5,-55.59
254.6,-55.6714
254.7,-55.6637
254.8,-55.7319
254.9,-55.6291
255,-55.6763
255.1,-55.6633
255.2,-55.735
255.3,-55.5387
255.4,-55.7152
255.5,-55.559
255.6,-55.587
255.7,-55.6831
255.8,-55.6253
255.9,-55.6894
256,-55.5727
256.1,-55.5635
256.2,-55.6918
256.3,-55.6214
256.4,-55.6339
256.5,-55.5838
256.6,-55.6886
256.7,-55.6983
256.8,-55.5813
256.9,-55.5612
257,-55.6078
257.1,-55.6013
257.2,-55.719
257.3,-55.545
257.4,-55.5906
257.5,-55.5002
257.6,-55.6608
257.7,-55.5437
257.8,-55.5437
257.9,-55.5891
258,-55.6704
258.1,-55.5484
258.2,-55.6164
258.3,-55.642
258.4,-55.4532
258.5,-55.579
258.6,-55.5688
258.7,-55.5741
258.8,-55.5553
258.9,-55.5623
259,-55.5234
259.1,-55.561
259.2,-55.5476
259.3,-55.5877
259.4,-55.5822
259.5,-55.4827
259.6,-55.4952
259.7,-55.465
259.8,-55.5023
259.9,-55.5315
260,-55.5549
260.1,-55.5701
260.2,-55.5208
260.3,-55.5759
260.4,-55.5674
260.5,-55.5863
260.6,-55.496
260.7,-55.5177
260.8,-55.4419
260.9,-55.4768
261,-55.4143
261.1,-55.4484
261.2,-55.47
261.3,-55.4766
261.4,-55.4753
261.5,-55.499
261.6,-55.5457
261.7,-55.5124
261.8,-55.5624
261.9,-55.4883
262,-55.4621
262.1,-55.4817
262.2,-55.5253
262.3,-55.5058
262.4,-55.4611
262.5,-55.4449
262.6,-55.5078
262.7,-55.4433
262.8,-55.5444
262.9,-55.542
263,-55.5159
263.1,-55.4219
263.2,-55.4519
263.3,-55.4897
263.4,-55.5292
263.5,-55.4936
263.6,-55.5191
263.7,-55.4988
263.8,-55.4401
263.9,-55.5769
264,-55.4054
264.1,-55.3837
264.2,-55.4128
264.3,-55.4518
264.4,-55.4895
264.5,-55.3826
264.6,-55.4194
264.7,-55.4016
264.8,-55.4584
264.9,-55.4264
265,-55.4206
265.1,-55.3511
265.2,-55.3175
265.3,-55.4335
265.4,-55.3576
265.5,-55.4685
265.6,-55.8011
265.7,-55.4655
265.8,-55.3428
265.9,-55.4429
266,-55.3906
266.1,-55.3752
266.2,-55.2914
266.3,-55.3519
266.4,-55.4307
266.5,-55.4477
266.6,-55.3114
266.7,-55.3082
266.8,-55.3457
266.9,-55.4995
267,-55.3445
267.1,-55.373
267.2,-55.392
267.3,-55.4043
267.4,-55.3754
267.5,-55.3349
267.6,-55.335
267.7,-55.3273
267.8,-55.4493
267.9,-55.3087
268,-55.2977
268.1,-55.2962
268.2,-55.2811
268.3,-55.2851
268.4,-55.4821
268.5,-55.3767
268.6,-55.307
268.7,-55.3025
268.8,-55.3377
268.9,-55.4435
269,-55.3674
269.1,-55.3
269.2,-55.3633
269.3,-55.3755
269.4,-55.3134
269.5,-55.2818
269.6,-55.384
269.7,-55.3105
269.8,-55.3387
269.9,-55.3601
270,-55.3534
270.1,-55.3094
270.2,-55.327
270.3,-55.2011
270.4,-55.2691
270.5,-55.3129
270.6,-55.429
270.7,-55.2229
270.8,-55.2423
270.9,-55.2458
271,-55.2941
271.1,-55.2541
271.2,-55.3207
271.3,-55.257
271.4,-55.256
271.5,-55.2942
271.6,-55.2263
271.7,-55.2201
271.8,-55.2776
271.9,-55.2664
272,-55.2039
272.1,-55.2264
272.2,-55.243
272.3,-55.2407
272.4,-55.1721
272.5,-55.1679
272.6,-55.2346
272.7,-55.2281
272.8,-55.2196
272.9,-55.1853
273,-55.2014
273.1,-55.2487
273.2,-55.1564
273.3,-55.2257
273.4,-55.1772
273.5,-55.2685
273.6,-55.188
273.7,-55.3268
273.8,-55.2395
273.9,-55.1367
274,-55.1514
274.1,-55.1986
274.2,-55.2475
274.3,-55.2169
274.4,-55.0691
274.5,-55.3023
274.6,-55.1323
274.7,-55.1599
274.8,-55.0893
274.9,-55.117
275,-55.2344
275.1,-55.1298
275.2,-55.1662
275.3,-55.2505
275.4,-55.1455
275.5,-55.0281
275.6,-55.1852
275.7,-55.1032
275.8,-55.113
275.9,-55.177
276,-55.1006
276.1,-55.0773
276.2,-55.0836
276.3,-55.1549
276.4,-55.0327
276.5,-55.0651
276.6,-54.9862
276.7,-55.1192
276.8,-55.1748
276.9,-55.1258
277,-55.1194
277.1,-55.0478
277.2,-55.0831
277.3,-55.0798
277.4,-55.1137
277.5,-55.0868
277.6,-55.0865
277.7,-55.1236
277.8,-55.1287
277.9,-55.0378
278,-55.1206
278.1,-55.0086
278.2,-55.0751
278.3,-55.0957
278.4,-55.1367
278.5,-54.9868
278.6,-55.1312
278.7,-55.0538
278.8,-54.9917
278.9,-55.1312
279,-55.0287
279.1,-55.0213
279.2,-55.0477
279.3,-55.0362
279.4,-55.0813
279.5,-54.9835
279.6,-55.0501
279.7,-55.0112
279.8,-55.0654
279.9,-55.0305
280,-55.0627
280.1,-55.0197
280.2,-54.9397
280.3,-55.0106
280.4,-54.9406
280.5,-54.9766
280.6,-55.0075
280.7,-55.0278
280.8,-55.0673
280.9,-55.0029
281,-54.9235
281.1,-55.038
281.2,-55.0198
281.3,-54.9706
281.4,-55.0616
281.5,-54.9668
281.6,-54.8447
281.7,-54.9321
281.8,-54.989
281.9,-54.877
282,-54.9082
282.1,-54.9928
282.2,-54.9952
282.3,-54.879
282.4,-54.8989
282.5,-54.9972
282.6,-55.0691
282.7,-54.8984
282.8,-54.9119
282.9,-54.9471
283,-54.9844
283.1,-54.9421
283.2,-54.9352
283.3,-54.9953
283.4,-54.8995
283.5,-54.9649
283.6,-54.8487
283.7,-55.0046
283.8,-54.9148
283.9,-54.9074
284,-54.9972
284.1,-55.008
284.2,-54.8326
284.3,-54.9146
284.4,-55.0669
284.5,-55.0527
284.6,-54.95
284.7,-54.9713
284.8,-54.828
284.9,-54.8338
285,-54.9475
285.1,-54.8555
285.2,-54.7232
285.3,-54.7825
285.4,-54.8657
285.5,-54.842
285.6,-54.659
285.7,-54.7976
285.8,-54.7528
285.9,-54.9349
286,-54.7171
286.1,-54.7547
286.2,-54.862
286.3,-54.8004
286.4,-55.0995
286.5,-54.7596
286.6,-54.7468
286.7,-54.842
286.8,-54.8962
286.9,-55.0664
287,-54.8333
287.1,-54.6626
287.2,-54.8424
287.3,-54.7749
287.4,-54.9545
287.5,-54.8434
287.6,-54.8868
287.7,-54.7657
287.8,-54.9084
287.9,-54.8294
288,-54.7901
288.1,-54.7432
288.2,-54.7629
288.3,-54.7569
288.4,-54.7538
288.5,-54.8113
288.6,-54.9109
288.7,-54.8266
288.8,-54.703
288.9,-54.8381
289,-54.7571
289.1,-54.7803
289.2,-54.7821
289.3,-54.7925
289.4,-54.8431
289.5,-54.7108
289.6,-54.5848
289.7,-54.768
289.8,-54.8944
289.9,-54.6622
290,-54.7422
290.1,-54.6708
290.2,-54.7726
290.3,-54.796
290.4,-54.6207
290.5,-54.8277
290.6,-54.7589
290.7,-54.737
290.8,-54.6679
290.9,-54.6961
291,-54.6119
291.1,-54.8196
291.2,-54.7508
291.3,-54.7188
291.4,-54.8256
291.5,-54.7692
291.6,-54.6639
291.7,-54.7054
291.8,-54.67
291.9,-54.7424
292,-54.8847
292.1,-54.6663
292.2,-54.6698
292.3,-54.6742
292.4,-54.7099
292.5,-54.7635
292.6,-54.6498
292.7,-54.6442
292.8,-54.7527
292.9,-54.6281
293,-54.5746
293.1,-54.6313
293.2,-54.7408
293.3,-54.7426
293.4,-54.6936
293.5,-54.5579
293.6,-54.6507
293.7,-54.6659
293.8,-54.6634
293.9,-54.628
294,-54.6348
294.1,-54.6012
294.2,-54.6591
294.3,-54.519
294.4,-54.7714
294.5,-54.6697
294.6,-54.5453
294.7,-54.6188
294.8,-54.7212
294.9,-54.5102
295,-54.6534
295.1,-54.6169
295.2,-54.5719
295.3,-54.5274
295.4,-54.6409
295.5,-54.5904
295.6,-54.6045
295.7,-54.6279
295.8,-54.5297
295.9,-54.7023
296,-54.4762
296.1,-54.4382
296.2,-54.5741
296.3,-54.5962
296.4,-54.6029
296.5,-54.6147
296.6,-54.5734
296.7,-54.6447
296.8,-54.6019
296.9,-54.3269
297,-54.5581
297.1,-54.5667
297.2,-54.5051
297.3,-54.5504
297.4,-54.4806
297.5,-54.4843
297.6,-54.5559
297.7,-54.5061
297.8,-54.4645
297.9,-54.4512
298,-54.487
298.1,-54.4068
298.2,-54.5433
298.3,-54.5006
298.4,-54.5146
298.5,-54.4876
298.6,-54.4589
298.7,-54.5651
298.8,-54.5277
298.9,-54.4928
299,-54.4718
299.1,-54.4496
299.2,-54.4612
299.3,-54.4015
299.4,-54.5246
299.5,-54.5308
299.6,-54.5465
299.7,-54.3895
299.8,-54.461
299.9,-54.4362
300,-54.4227
300.1,-54.3776
300.2,-54.4146
300.3,-54.0996
300.4,-54.4571
300.5,-54.3599
300.6,-54.4099
300.7,-54.5287
300.8,-54.3883
300.9,-54.3883
301,-54.2973
301.1,-54.3674
301.2,-54.514
301.3,-54.4117
301.4,-54.3207
301.5,-54.3786
301.6,-54.4044
301.7,-54.3815
301.8,-54.2984
301.9,-54.4123
302,-54.4587
302.1,-54.4578
302.2,-54.4223
302.3,-54.4522
302.4,-54.4485
302.5,-54.3343
302.6,-54.3971
302.7,-54.389
302.8,-54.4593
302.9,-54.4237
303,-54.4075
303.1,-54.363
303.2,-54.3913
303.3,-54.3122
303.4,-54.3649
303.5,-54.4261
303.6,-54.2014
303.7,-54.3096
303.8,-54.2821
303.9,-54.3304
304,-54.3621
304.1,-54.3856
304.2,-54.2717
304.3,-54.2699
304.4,-54.2548
304.5,-54.294
304.6,-54.262
304.7,-54.3266
304.8,-54.334
304.9,-54.3528
305,-54.3966
305.1,-54.2679
305.2,-54.2518
305.3,-54.1888
305.4,-54.3336
305.5,-54.3272
305.6,-54.2542
305.7,-54.2484
305.8,-54.3132
305.9,-54.2648
306,-54.2753
306.1,-54.2918
306.2,-54.2106
306.3,-54.3234
306.4,-54.1761
306.5,-54.1593
306.6,-54.2494
306.7,-54.1752
306.8,-54.2795
306.9,-54.2952
307,-54.3196
307.1,-54.3093
307.2,-54.2071
307.3,-54.225
307.4,-54.2808
307.5,-54.3173
307.6,-54.1369
307.7,-54.2589
307.8,-54.2035
307.9,-54.2926
308,-54.2606
308.1,-54.2003
308.2,-54.1606
308.3,-54.1776
308.4,-54.0741
308.5,-54.2134
308.6,-54.2728
308.7,-54.2496
308.8,-54.1724
308.9,-54.1675
309,-54.1176
309.1,-54.1262
309.2,-54.138
309.3,-54.2078
309.4,-54.1598
309.5,-54.165
309.6,-54.1519
309.7,-54.1522
309.8,-54.2289
309.9,-54.0977
310,-54.0907
310.1,-54.0847
310.2,-54.1311
310.3,-54.1755
310.4,-54.1319
310.5,-54.1202
310.6,-54.0589
310.7,-54.1817
310.8,-54.1685
310.9,-54.0957
311,-54.1424
311.1,-54.0361
311.2,-54.1399
311.3,-54.1192
311.4,-54.0757
311.5,-54.1054
311.6,-54.0878
311.7,-54.113
311.8,-54.0684
311.9,-54.0556
312,-54.0948
312.1,-54.0783
312.2,-54.0442
312.3,-54.1019
312.4,-54.1005
312.5,-54.1026
312.6,-54.0976
312.7,-54.0607
312.8,-54.0227
312.9,-54.0207
313,-54.0451
313.1,-53.9789
313.2,-54.0606
313.3,-53.9958
313.4,-54.0657
313.5,-54.0033
313.6,-53.9834
313.7,-53.95
313.8,-53.9888
313.9,-54.0402
314,-54.0046
314.1,-53.966
314.2,-53.9727
314.3,-53.9393
314.4,-53.998
314.5,-53.9931
314.6,-53.9594
314.7,-53.9349
314.8,-53.9866
314.9,-53.9423
315,-53.8972
315.1,-53.9578
315.2,-53.9101
315.3,-53.947
315.4,-53.9464
315.5,-53.9433
315.6,-53.9398
315.7,-53.9332
315.8,-53.9451
315.9,-54.0581
316,-53.9439
316.1,-53.9204
316.2,-53.9505
316.3,-53.9125
316.4,-53.8946
316.5,-53.8627
316.6,-53.9653
316.7,-53.821
316.8,-53.8998
316.9,-53.8865
317,-53.957
317.1,-53.9778
317.2,-53.9492
317.3,-53.8802
317.4,-53.8757
317.5,-53.8803
317.6,-53.8827
317.7,-53.8789
317.8,-53.8846
317.9,-53.8818
318,-53.8584
318.1,-53.8689
318.2,-53.9349
318.3,-53.8764
318.4,-53.8802
318.5,-53.8963
318.6,-53.8376
318.7,-53.8378
318.8,-53.8585
318.9,-53.8202
319,-53.7836
319.1,-53.8043
319.2,-53.8477
319.3,-53.8649
319.4,-53.7745
319.5,-53.8469
319.6,-53.7959
319.7,-53.8338
319.8,-53.7724
319.9,-53.8212
320,-53.7224
320.1,-53.7649
320.2,-53.8318
320.3,-53.8129
320.4,-53.7231
320.5,-53.7093
320.6,-53.7999
320.7,-53.8266
320.8,-53.7625
320.9,-53.8655
321,-53.827
321.1,-53.7403
321.2,-53.6732
321.3,-53.7535
321.4,-53.7839
321.5,-53.6633
321.6,-53.7442
321.7,-53.7098
321.8,-53.7634
321.9,-53.7139
322,-53.7103
322.1,-53.7503
322.2,-53.7029
322.3,-53.6865
322.4,-53.7385
322.5,-53.7505
322.6,-53.6172
322.7,-53.6308
322.8,-53.6684
322.9,-53.6782
323,-53.7367
323.1,-53.7988
323.2,-53.6327
323.3,-53.6228
323.4,-53.642
323.5,-53.6087
323.6,-53.6571
323.7,-53.6367
323.8,-53.665
323.9,-53.6044
324,-53.6408
324.1,-53.6879
324.2,-53.6625
324.3,-53.6958
324.4,-53.667
324.5,-53.5782
324.6,-53.6608
324.7,-53.6303
324.8,-53.6002
324.9,-53.6415
325,-53.4716
325.1,-53.5772
325.2,-53.4925
325.3,-53.5764
325.4,-53.6092
325.5,-53.5497
325.6,-53.5977
325.7,-53.5905
325.8,-53.5477
325.9,-53.5312
326,-53.5333
326.1,-53.6496
326.2,-53.541
326.3,-53.5564
326.4,-53.6242
326.5,-53.555
326.6,-53.5359
326.7,-53.4842
326.8,-53.557
326.9,-53.4986
327,-53.5116
327.1,-53.5471
327.2,-53.5223
327.3,-53.5413
327.4,-53.543
327.5,-53.4947
327.6,-53.4614
327.7,-53.5618
327.8,-53.5101
327.9,-53.4981
328,-53.5096
328.1,-53.4553
328.2,-53.4946
328.3,-53.4654
328.4,-53.4523
328.5,-53.4674
328.6,-53.532
328.7,-53.4591
328.8,-53.4874
328.9,-53.5061
329,-53.434
329.1,-53.4295
329.2,-53.4708
329.3,-53.3464
329.4,-53.4363
329.5,-53.4247
329.6,-53.485
329.7,-53.4852
329.8,-53.3933
329.9,-53.354
330,-53.351
330.1,-53.5047
330.2,-53.385
330.3,-53.3513
330.4,-53.4042
330.5,-53.3233
330.6,-53.3954
330.7,-53.4164
330.8,-53.4483
330.9,-53.3887
331,-53.4188
331.1,-53.3236
331.2,-53.3536
331.3,-53.4083
331.4,-53.3858
331.5,-53.3436
331.6,-53.3262
331.7,-53.3415
331.8,-53.3149
331.9,-53.3362
332,-53.2883
332.1,-53.3344
332.2,-53.4127
332.3,-53.4075
332.4,-53.4251
332.5,-53.311
332.6,-53.3155
332.7,-53.3036
332.8,-53.2461
332.9,-53.2728
333,-53.3919
333.1,-53.3144
333.2,-53.258
333.3,-53.334
333.4,-53.3338
333.5,-53.2674
333.6,-53.257
333.7,-53.291
333.8,-53.2214
333.9,-53.2819
334,-53.2691
334.1,-53.2619
334.2,-53.2347
334.3,-53.2724
334.4,-53.2649
334.5,-53.1724
334.6,-53.2424
334.7,-53.3031
334.8,-53.3661
334.9,-53.2211
335,-53.2867
335.1,-53.1886
335.2,-53.2235
335.3,-53.2668
335.4,-53.229
335.5,-53.2084
335.6,-53.178
335.7,-53.2521
335.8,-53.2352
335.9,-53.1548
336,-53.1534
336.1,-53.1908
336.2,-53.2519
336.3,-53.1649
336.4,-53.1852
336.5,-53.1469
336.6,-53.1735
336.7,-53.1916
336.8,-53.1463
336.9,-53.1336
337,-53.1555
337.1,-53.1185
337.2,-53.1652
337.3,-53.106
337.4,-53.086
337.5,-53.1391
337.6,-53.1383
337.7,-53.1067
337.8,-53.1232
337.9,-53.1248
338,-53.0538
338.1,-53.1712
338.2,-53.0902
338.3,-53.0731
338.4,-53.1091
338.5,-53.0923
338.6,-53.1002
338.7,-53.0528
338.8,-53.1322
338.9,-53.0864
339,-53.1476
339.1,-53.0434
339.2,-53.046
339.3,-53.1494
339.4,-53.0387
339.5,-53.0285
339.6,-52.9734
339.7,-53.0596
339.8,-52.9919
339.9,-53.0336
340,-53.0174
340.1,-52.9982
340.2,-53.0632
340.3,-53.0532
340.4,-52.9848
340.5,-53.0295
340.6,-52.9582
340.7,-53.001
340.8,-53.0031
340.9,-52.9892
341,-53.0354
341.1,-52.9745
341.2,-53.0008
341.3,-53.0185
341.4,-52.9504
341.5,-52.9327
341.6,-52.9995
341.7,-52.9292
341.8,-52.9115
341.9,-52.9264
342,-53.0126
342.1,-52.9551
342.2,-52.9075
342.3,-52.9615
342.4,-52.8987
342.5,-52.8963
342.6,-52.8342
342.7,-52.9164
342.8,-52.9026
342.9,-52.9786
343,-52.9674
343.1,-52.8534
343.2,-52.8567
343.3,-52.93
343.4,-52.8534
343.5,-52.8652
343.6,-52.936
343.7,-52.8219
343.8,-52.8109
343.9,-52.8164
344,-52.8469
344.1,-52.8144
344.2,-52.8098
344.3,-52.885
344.4,-52.8002
344.5,-52.8358
344.6,-52.904
344.7,-52.8037
344.8,-52.8064
344.9,-52.8239
345,-52.7642
345.1,-52.8236
345.2,-52.803
345.3,-52.7422
345.4,-52.8183
345.5,-52.719
345.6,-52.8386
345.7,-52.7631
345.8,-52.7459
345.9,-52.7437
346,-52.7428
346.1,-52.7472
346.2,-52.7151
346.3,-52.7035
346.4,-52.7122
346.5,-52.8032
346.6,-52.7632
346.7,-52.7772
346.8,-52.7783
346.9,-52.7593
347,-52.679
347.1,-52.6975
347.2,-52.7332
347.3,-52.6458
347.4,-52.7035
347.5,-52.7047
347.6,-52.7132
347.7,-52.6421
347.8,-52.7954
347.9,-52.6595
348,-52.7103
348.1,-52.7246
348.2,-52.68
348.3,-52.6707
348.4,-52.6512
348.5,-52.6234
348.6,-52.6999
348.7,-52.593
348.8,-52.6498
348.9,-52.6509
349,-52.6337
349.1,-52.6696
349.2,-52.5782
349.3,-52.6176
349.4,-52.631
349.5,-52.6471
349.6,-52.6565
349.7,-52.6084
349.8,-52.6546
349.9,-52.6054
350,-52.6681
350.1,-52.6587
350.2,-52.6176
350.3,-52.6186
350.4,-51.5291
350.5,-52.3685
350.6,-52.5242
350.7,-52.5156
350.8,-52.5266
350.9,-52.5641
351,-52.5508
351.1,-52.4972
351.2,-52.5103
351.3,-52.4814
351.4,-52.5455
351.5,-52.5143
351.6,-52.5065
351.7,-52.4894
351.8,-52.5232
351.9,-52.4599
352,-52.5037
352.1,-52.5601
352.2,-52.5105
352.3,-52.4809
352.4,-52.454
352.5,-52.4357
352.6,-52.4629
352.7,-52.4148
352.8,-52.4604
352.9,-52.4193
353,-52.5059
353.1,-52.4226
353.2,-52.4359
353.3,-52.4571
353.4,-52.4892
353.5,-52.4371
353.6,-52.399
353.7,-52.374
353.8,-52.3911
353.9,-52.3279
354,-52.4083
354.1,-52.4005
354.2,-52.3076
354.3,-52.3638
354.4,-52.4132
354.5,-52.3754
354.6,-52.3196
354.7,-52.3857
354.8,-52.2656
354.9,-52.3697
355,-52.353
355.1,-52.3051
355.2,-52.3155
355.3,-52.3388
355.4,-52.2975
355.5,-52.3362
355.6,-52.285
355.7,-52.3096
355.8,-52.3012
355.9,-52.3111
356,-52.2694
356.1,-52.2704
356.2,-52.2452
356.3,-52.2104
356.4,-52.3094
356.5,-52.3639
356.6,-52.3429
356.7,-52.2512
356.8,-52.2988
356.9,-52.2266
357,-52.2792
357.1,-52.3018
357.2,-52.2829
357.3,-52.1931
357.4,-52.28
357.5,-52.2635
357.6,-52.2183
357.7,-52.1753
357.8,-52.2332
357.9,-52.1529
358,-52.1719
358.1,-52.2994
358.2,-52.2306
358.3,-52.2446
358.4,-52.2054
358.5,-52.1726
358.6,-52.2183
358.7,-52.1563
358.8,-52.183
358.9,-52.1937
359,-52.0945
359.1,-52.186
359.2,-52.2013
359.3,-52.1982
359.4,-52.1833
359.5,-52.131
359.6,-52.1322
359.7,-52.1772
359.8,-52.1599
359.9,-52.1183
360,-52.1481
360.1,-52.0889
360.2,-52.108
360.3,-52.0871
360.4,-52.0988
360.5,-52.1452
360.6,-52.0518
360.7,-52.1457
360.8,-52.0402
360.9,-52.0699
361,-51.997
361.1,-52.0276
361.2,-52.0709
361.3,-52.0733
361.4,-52.0746
361.5,-52.0416
361.6,-52.0336
361.7,-51.9402
361.8,-52.067
361.9,-52.0217
362,-52.0321
362.1,-52.0126
362.2,-52.0101
362.3,-51.9736
362.4,-51.9748
362.5,-51.9806
362.6,-52.0911
362.7,-51.9969
362.8,-51.9938
362.9,-51.9911
363,-51.9358
363.1,-51.9583
363.2,-52.0031
363.3,-51.91
363.4,-51.9105
363.5,-51.8917
363.6,-51.8915
363.7,-51.9431
363.8,-51.9005
363.9,-51.94
364,-51.8503
364.1,-51.8843
364.2,-51.9037
364.3,-51.9446
364.4,-51.9018
364.5,-51.9264
364.6,-51.8253
364.7,-51.8795
364.8,-51.8577
364.9,-51.8441
365,-51.8727
365.1,-51.8426
365.2,-51.8358
365.3,-51.8264
365.4,-51.8178
365.5,-51.8512
365.6,-51.8468
365.7,-51.8104
365.8,-51.7963
365.9,-51.8168
366,-51.7934
366.1,-51.8234
366.2,-51.8437
366.3,-51.7276
366.4,-51.7718
366.5,-51.767
366.6,-51.7974
366.7,-51.8019
366.8,-51.7517
366.9,-51.7643
367,-51.7872
367.1,-51.82
367.2,-51.7427
367.3,-51.7648
367.4,-51.7086
367.5,-51.6977
367.6,-51.7155
367.7,-51.6873
367.8,-51.7036
367.9,-51.6813
368,-51.7735
368.1,-51.7036
368.2,-51.6778
368.3,-51.6192
368.4,-51.7325
368.5,-51.7342
368.6,-51.682
368.7,-51.6244
368.8,-51.7363
368.9,-51.6333
369,-51.6714
369.1,-51.6693
369.2,-51.5748
369.3,-51.6135
369.4,-51.6217
369.5,-51.6299
369.6,-51.6233
369.7,-51.6172
369.8,-51.5684
369.9,-51.5776
370,-51.6062
370.1,-51.5905
370.2,-51.5953
370.3,-51.568
370.4,-51.5691
370.5,-51.5734
370.6,-51.5493
370.7,-51.5098
370.8,-51.6153
370.9,-51.5455
371,-51.5429
371.1,-51.505
371.2,-51.5084
371.3,-51.5566
371.4,-51.5051
371.5,-51.4912
371.6,-51.5225
371.7,-51.4828
371.8,-51.4975
371.9,-51.5012
372,-51.4868
372.1,-51.4197
372.2,-51.5707
372.3,-51.4691
372.4,-51.4925
372.5,-51.5031
372.6,-51.4903
372.7,-51.4407
372.8,-51.3824
372.9,-51.4104
373,-51.4288
373.1,-51.4441
373.2,-51.4201
373.3,-51.3821
373.4,-51.4056
373.5,-51.4025
373.6,-51.3639
373.7,-51.4159
373.8,-51.408
373.9,-51.4001
374,-51.3774
374.1,-51.384
374.2,-51.3575
374.3,-51.39
374.4,-51.3654
374.5,-51.3353
374.6,-51.4323
374.7,-51.4102
374.8,-51.3673
374.9,-51.316
375,-51.3341
375.1,-51.3337
375.2,-51.4025
375.3,-51.317
375.4,-51.296
375.5,-51.3064
375.6,-51.3162
375.7,-51.2602
375.8,-51.3725
375.9,-51.225
376,-51.3002
376.1,-51.2048
376.2,-51.2805
376.3,-51.2073
376.4,-51.1873
376.5,-51.2571
376.6,-51.2543
376.7,-51.2471
376.8,-51.2073
376.9,-51.2778
377,-51.2171
377.1,-51.1987
377.2,-51.2037
377.3,-51.1748
377.4,-51.0982
377.5,-51.1794
377.6,-51.1604
377.7,-51.2153
377.8,-51.184
377.9,-51.1083
378,-51.1961
378.1,-51.1561
378.2,-51.1539
378.3,-51.0723
378.4,-51.1352
378.5,-51.1569
378.6,-51.1084
378.7,-51.1211
378.8,-51.0329
378.9,-51.0992
379,-51.0409
379.1,-51.0587
379.2,-51.0923
379.3,-51.09
379.4,-51.1355
379.5,-51.1092
379.6,-51.0678
379.7,-51.1379
379.8,-51.055
379.9,-50.9908
380,-50.9916
380.1,-50.9981
380.2,-51.0155
380.3,-50.9763
380.4,-51.037
380.5,-50.9872
380.6,-50.9678
380.7,-50.9471
380.8,-50.9244
380.9,-50.9594
381,-50.9769
381.1,-50.9653
381.2,-50.9942
381.3,-50.9454
381.4,-50.9958
381.5,-50.9934
381.6,-50.8989
381.7,-50.9823
381.8,-50.8811
381.9,-50.8938
382,-50.9327
382.1,-50.8812
382.2,-50.8891
382.3,-50.8508
382.4,-50.9515
382.5,-50.8709
382.6,-50.9102
382.7,-50.8915
382.8,-50.8408
382.9,-50.8223
383,-50.8842
383.1,-50.8541
383.2,-50.85
383.3,-50.7903
383.4,-50.8106
383.5,-50.7918
383.6,-50.8236
383.7,-50.7552
383.8,-50.8175
383.9,-50.796
384,-50.8344
384.1,-50.7985
384.2,-50.7553
384.3,-50.76
384.4,-50.8012
384.5,-50.7577
384.6,-50.7575
384.7,-50.7496
384.8,-50.7552
384.9,-50.7566
385,-50.7559
385.1,-50.6858
385.2,-50.6882
385.3,-50.7461
385.4,-50.6925
385.5,-50.6886
385.6,-50.7192
385.7,-50.6372
385.8,-50.6817
385.9,-50.6603
386,-50.7214
386.1,-50.6522
386.2,-50.6496
386.3,-50.6924
386.4,-50.6452
386.5,-50.6463
386.6,-50.6564
386.7,-50.5631
386.8,-50.6276
386.9,-50.5277
387,-50.5942
387.1,-50.6004
387.2,-50.5786
387.3,-50.6094
387.4,-50.5425
387.5,-50.5531
387.6,-50.5845
387.7,-50.5003
387.8,-50.5332
387.9,-50.5291
388,-50.5307
388.1,-50.5405
388.2,-50.4932
388.3,-50.5228
388.4,-50.5007
388.5,-50.5333
388.6,-50.5085
388.7,-50.5018
388.8,-50.4866
388.9,-50.4873
389,-50.5015
389.1,-50.4171
389.2,-50.4834
389.3,-50.4557
389.4,-50.5132
389.5,-50.4574
389.6,-50.4525
389.7,-50.4316
389.8,-50.478
389.9,-50.3529
390,-50.3785
390.1,-50.3744
390.2,-50.4375
390.3,-50.3517
390.4,-50.3321
390.5,-50.3739
390.6,-50.3621
390.7,-50.4226
390.8,-50.3825
390.9,-50.4048
391,-50.3885
391.1,-50.309
391.2,-50.3502
391.3,-50.2318
391.4,-50.3174
391.5,-50.3451
391.6,-50.3354
391.7,-50.2603
391.8,-50.3176
391.9,-50.2751
392,-50.2231
392.1,-50.2787
392.2,-50.2772
392.3,-50.3116
392.4,-50.2471
392.5,-50.2582
392.6,-50.2688
392.7,-50.2424
392.8,-50.2209
392.9,-50.2174
393,-50.2406
393.1,-50.2325
393.2,-50.2186
393.3,-50.2121
393.4,-50.1968
393.5,-50.219
393.6,-50.1645
393.7,-50.1632
393.8,-50.1238
393.9,-50.189
394,-50.1425
394.1,-50.1434
394.2,-50.1345
394.3,-50.1162
394.4,-50.0984
394.5,-50.1492
394.6,-50.0836
394.7,-50.0527
394.8,-50.1117
394.9,-50.0603
395,-50.1034
395.1,-50.0737
395.2,-50.1324
395.3,-50.0769
395.4,-50.021
395.5,-50.0114
395.6,-50.0517
395.7,-50.0238
395.8,-50.0448
395.9,-49.9953
396,-50.0114
396.1,-50.0148
396.2,-49.9866
396.3,-49.9568
396.4,-50.0411
396.5,-49.9995
396.6,-50.0149
396.7,-49.9809
396.8,-49.9653
396.9,-50.0001
397,-49.9588
397.1,-49.9679
397.2,-49.9283
397.3,-49.9295
397.4,-49.9122
397.5,-49.9275
397.6,-49.8865
397.7,-49.938
397.8,-49.9275
397.9,-49.9094
398,-49.9182
398.1,-49.8708
398.2,-49.8794
398.3,-49.8536
398.4,-49.883
398.5,-49.9041
398.6,-49.8941
398.7,-49.911
398.8,-49.9427
398.9,-49.7875
399,-49.8577
399.1,-49.8534
399.2,-49.8543
399.3,-49.7946
399.4,-49.8329
399.5,-49.7954
399.6,-49.8369
399.7,-49.8138
399.8,-49.8462
399.9,-49.7924
400,-49.856
400.1,-49.8496
400.2,-49.8252
400.3,-49.8566
400.4,-49.8672
400.5,-49.8982
400.6,-49.9088
400.7,-49.9571
400.8,-50.0224
400.9,-50.0544
401,-50.1705
401.1,-50.4049
401.2,-51.043
401.3,-57.6321
401.4,-47.1415
401.5,-48.4875
401.6,-48.9293
401.7,-49.0541
401.8,-49.2001
401.9,-49.2235
402,-49.231
402.1,-49.3291
402.2,-49.3165
402.3,-49.2877
402.4,-49.3322
402.5,-49.3399
402.6,-49.3424
402.7,-49.3025
402.8,-49.3726
402.9,-49.3396
403,-49.347
403.1,-49.3861
403.2,-49.4177
403.3,-49.3671
403.4,-49.3353
403.5,-49.3412
403.6,-49.329
403.7,-49.3297
403.8,-49.2214
403.9,-49.3663
404,-49.3636
404.1,-49.3261
404.2,-49.3299
404.3,-49.2923
404.4,-49.3107
404.5,-49.3006
404.6,-49.2699
404.7,-49.301
404.8,-49.3291
404.9,-49.3103
405,-49.2414
405.1,-49.2322
405.2,-49.2415
405.3,-49.2162
405.4,-49.2817
405.5,-49.2513
405.6,-49.254
405.7,-49.2331
405.8,-49.2218
405.9,-49.2035
406,-49.2242
406.1,-49.2306
406.2,-49.23
406.3,-49.2082
406.4,-49.1593
406.5,-49.1725
406.6,-49.194
406.7,-49.1474
406.8,-49.132
406.9,-49.097
407,-49.1383
407.1,-49.122
407.2,-49.0609
407.3,-49.1355
407.4,-49.0742
407.5,-49.145
407.6,-49.1025
407.7,-49.1009
407.8,-49.086
407.9,-49.0537
408,-49.0106
408.1,-49.0394
408.2,-49.0345
408.3,-49.0198
408.4,-49.0434
408.5,-49.0338
408.6,-48.9758
408.7,-49.0095
408.8,-48.9965
408.9,-48.9422
409,-48.9556
409.1,-48.9383
409.2,-48.9772
409.3,-48.9448
409.4,-48.9433
409.5,-48.9315
409.6,-48.8956
409.7,-48.9308
409.8,-48.9139
409.9,-48.8832
410,-48.896
410.1,-48.8589
410.2,-48.8831
410.3,-48.8702
410.4,-48.8753
410.5,-48.8337
410.6,-48.823
410.7,-48.8376
410.8,-48.8693
410.9,-48.8109
411,-48.8138
411.1,-48.7866
411.2,-48.7809
411.3,-48.8376
411.4,-48.7328
411.5,-48.7826
411.6,-48.7607
411.7,-48.7254
411.8,-48.7639
411.9,-48.7748
412,-48.7605
412.1,-48.7075
412.2,-48.706
412.3,-48.7239
412.4,-48.6736
412.5,-48.6231
412.6,-48.6641
412.7,-48.6691
412.8,-48.6688
412.9,-48.6672
413,-48.6488
413.1,-48.6603
413.2,-48.6102
413.3,-48.5763
413.4,-48.5976
413.5,-48.5496
413.6,-48.6216
413.7,-48.6272
413.8,-48.5692
413.9,-48.5871
414,-48.5463
414.1,-48.5532
414.2,-48.5507
414.3,-48.5156
414.4,-48.5293
414.5,-48.525
414.6,-48.4869
414.7,-48.4618
414.8,-48.4901
414.9,-48.4806
415,-48.4802
415.1,-48.4214
415.2,-48.4825
415.3,-48.4923
415.4,-48.4443
415.5,-48.3945
415.6,-48.4283
415.7,-48.3874
415.8,-48.3507
415.9,-48.4051
416,-48.367
416.1,-48.3909
416.2,-48.3723
416.3,-48.3428
416.4,-48.4027
416.5,-48.3386
416.6,-48.3344
416.7,-48.3546
416.8,-48.2575
416.9,-48.3014
417,-48.3191
417.1,-48.2756
417.2,-48.2493
417.3,-48.28
417.4,-48.2238
417.5,-48.2733
417.6,-48.2092
417.7,-48.236
417.8,-48.2191
417.9,-48.2162
418,-48.1897
418.1,-48.2345
418.2,-48.2066
418.3,-48.1991
418.4,-48.186
418.5,-48.1554
418.6,-48.17
418.7,-48.134
418.8,-48.1406
418.9,-48.1372
419,-48.105
419.1,-48.1167
419.2,-48.1494
419.3,-48.1062
419.4,-48.0744
419.5,-48.0818
419.6,-48.0203
419.7,-48.0327
419.8,-48.0316
419.9,-47.9795
420,-47.9992
420.1,-48.0244
420.2,-48.0173
420.3,-47.9792
420.4,-48.0111
420.5,-47.9733
420.6,-47.9092
420.7,-47.9313
420.8,-47.927
420.9,-47.9183
421,-47.9463
421.1,-47.8938
421.2,-47.8827
421.3,-47.8886
421.4,-47.8665
421.5,-47.9171
421.6,-47.8524
421.7,-47.8506
421.8,-47.8262
421.9,-47.8497
422,-47.8361
422.1,-47.8125
422.2,-47.8041
422.3,-47.8227
422.4,-47.7622
422.5,-47.7647
422.6,-47.79
422.7,-47.7785
422.8,-47.7647
422.9,-47.7244
423,-47.711
423.1,-47.7217
423.2,-47.6972
423.3,-47.6593
423.4,-47.6938
423.5,-47.6523
423.6,-47.6395
423.7,-47.6519
423.8,-47.6253
423.9,-47.5954
424,-47.6069
424.1,-47.6227
424.2,-47.6207
424.3,-47.5517
424.4,-47.5655
424.5,-47.5476
424.6,-47.5483
424.7,-47.522
424.8,-47.5571
424.9,-47.558
425,-47.5032
425.1,-47.5163
425.2,-47.5177
425.3,-47.5335
425.4,-47.4981
425.5,-47.4563
425.6,-47.4626
425.7,-47.4638
425.8,-47.4378
425.9,-47.4296
426,-47.4239
426.1,-47.3948
426.2,-47.4153
426.3,-47.3983
426.4,-47.374
426.5,-47.3571
426.6,-47.3629
426.7,-47.3428
426.8,-47.3289
426.9,-47.3108
427,-47.2903
427.1,-47.3071
427.2,-47.3005
427.3,-47.3445
427.4,-47.2754
427.5,-47.2758
427.6,-47.2543
427.7,-47.2407
427.8,-47.2241
427.9,-47.2146
428,-47.1894
428.1,-47.1931
428.2,-47.1838
428.3,-47.1774
428.4,-47.1534
428.5,-47.1724
428.6,-47.1552
428.7,-47.124
428.8,-47.1485
428.9,-47.0946
429,-47.0987
429.1,-47.0949
429.2,-47.0833
429.3,-47.0479
429.4,-47.0686
429.5,-47.0611
429.6,-47.0341
429.7,-47.0561
429.8,-47.0099
429.9,-47.005
430,-47.0368
430.1,-46.9887
430.2,-46.9432
430.3,-46.9219
430.4,-46.963
430.5,-46.9242
430.6,-46.9437
430.7,-46.8959
430.8,-46.9282
430.9,-46.9055
431,-46.9014
431.1,-46.8866
431.2,-46.8696
431.3,-46.8345
431.4,-46.8464
431.5,-46.8282
431.6,-46.8379
431.7,-46.7863
431.8,-46.7776
431.9,-46.8005
432,-46.7686
432.1,-46.7211
432.2,-46.7162
432.3,-46.712
432.4,-46.7171
432.5,-46.7212
432.6,-46.7037
432.7,-46.6791
432.8,-46.7098
432.9,-46.6608
433,-46.625
433.1,-46.6337
433.2,-46.6007
433.3,-46.6356
433.4,-46.6264
433.5,-46.6071
433.6,-46.5702
433.7,-46.5951
433.8,-46.5263
433.9,-46.5452
434,-46.5595
434.1,-46.5472
434.2,-46.5242
434.3,-46.5195
434.4,-46.5004
434.5,-46.4654
434.6,-46.4655
434.7,-46.4605
434.8,-46.4497
434.9,-46.4356
435,-46.4073
435.1,-46.3692
435.2,-46.3851
435.3,-46.3865
435.4,-46.3833
435.5,-46.3306
435.6,-46.3534
435.7,-46.3355
435.8,-46.2998
435.9,-46.3368
436,-46.3199
436.1,-46.3127
436.2,-46.2838
436.3,-46.2421
436.4,-46.2416
436.5,-46.2315
436.6,-46.2206
436.7,-46.1891
436.8,-46.2087
436.9,-46.2238
437,-46.1796
437.1,-46.1398
437.2,-46.1652
437.3,-46.146
437.4,-46.1432
437.5,-46.1289
437.6,-46.1167
437.7,-46.0778
437.8,-46.0871
437.9,-46.0514
438,-46.0522
438.1,-46.0618
438.2,-46.0325
438.3,-46.026
438.4,-46.0102
438.5,-46.0289
438.6,-45.9653
438.7,-45.993
438.8,-45.9603
438.9,-45.9274
439,-45.9391
439.1,-45.9144
439.2,-45.901
439.3,-45.8917
439.4,-45.882
439.5,-45.8328
439.6,-45.8895
439.7,-45.8452
439.8,-45.8556
439.9,-45.8114
440,-45.7656
440.1,-45.7747
440.2,-45.754
440.3,-45.7565
440.4,-45.703
440.5,-45.7209
440.6,-45.7014
440.7,-45.6706
440.8,-45.681
440.9,-45.6612
441,-45.6861
441.1,-45.6564
441.2,-45.6211
441.3,-45.6082
441.4,-45.594
441.5,-45.6166
441.6,-45.618
441.7,-45.5299
441.8,-45.5523
441.9,-45.5174
442,-45.5181
442.1,-45.5099
442.2,-45.4891
442.3,-45.4837
442.4,-45.4958
442.5,-45.4797
442.6,-45.4149
442.7,-45.434
442.8,-45.4075
442.9,-45.3992
443,-45.3873
443.1,-45.3843
443.2,-45.3773
443.3,-45.3305
443.4,-45.341
443.5,-45.3279
443.6,-45.2901
443.7,-45.3126
443.8,-45.2838
443.9,-45.2619
444,-45.2492
444.1,-45.2441
444.2,-45.2033
444.3,-45.2022
444.4,-45.2001
444.5,-45.1924
444.6,-45.1626
444.7,-45.1594
444.8,-45.1529
444.9,-45.1402
445,-45.1106
445.1,-45.1148
445.2,-45.091
445.3,-45.0683
445.4,-45.0647
445.5,-45.0283
445.6,-45.0191
445.7,-45.0389
445.8,-44.978
445.9,-45.016
446,-44.9908
446.1,-44.9551
446.2,-44.9161
446.3,-44.9109
446.4,-44.9207
446.5,-44.9132
446.6,-44.862
446.7,-44.8299
446.8,-44.8644
446.9,-44.8528
447,-44.8035
447.1,-44.8348
447.2,-44.7901
447.3,-44.7862
447.4,-44.7867
447.5,-44.7446
447.6,-44.7513
447.7,-44.6963
447.8,-44.7087
447.9,-44.7052
448,-44.6861
448.1,-44.6719
448.2,-44.6266
448.3,-44.6228
448.4,-44.6316
448.5,-44.5849
448.6,-44.5703
448.7,-44.5688
448.8,-44.5493
448.9,-44.5414
449,-44.5136
449.1,-44.4949
449.2,-44.4797
449.3,-44.4958
449.4,-44.4505
449.5,-44.4205
449.6,-44.4157
449.7,-44.4116
449.8,-44.389
449.9,-44.3679
450,-44.3624
450.1,-44.3406
450.2,-44.3174
450.3,-44.3258
450.4,-44.2875
450.5,-44.1298
450.6,-44.2543
450.7,-44.2623
450.8,-44.2442
450.9,-44.184
451,-44.2259
451.1,-44.1893
451.2,-44.1692
451.3,-44.1909
451.4,-44.1136
451.5,-44.125
451.6,-44.1229
451.7,-44.0842
451.8,-44.0648
451.9,-44.0536
452,-44.0595
452.1,-44.0267
452.2,-43.9986
452.3,-43.9874
452.4,-43.9752
452.5,-43.929
452.6,-43.9468
452.7,-43.8858
452.8,-43.9262
452.9,-43.8719
453,-43.8637
453.1,-43.8437
453.2,-43.8531
453.3,-43.8189
453.4,-43.819
453.5,-43.8
453.6,-43.7514
453.7,-43.7752
453.8,-43.7268
453.9,-43.7169
454,-43.726
454.1,-43.6877
454.2,-43.6733
454.3,-43.6551
454.4,-43.6322
454.5,-43.6103
454.6,-43.615
454.7,-43.5833
454.8,-43.5528
454.9,-43.5635
455,-43.5261
455.1,-43.5175
455.2,-43.496
455.3,-43.4922
455.4,-43.4633
455.5,-43.4339
455.6,-43.4306
455.7,-43.4031
455.8,-43.3815
455.9,-43.366
456,-43.3472
456.1,-43.3193
456.2,-43.3182
456.3,-43.2905
456.4,-43.26
456.5,-43.2789
456.6,-43.2231
456.7,-43.2098
456.8,-43.2182
456.9,-43.1966
457,-43.1728
457.1,-43.1348
457.2,-43.1562
457.3,-43.1032
457.4,-43.0772
457.5,-43.0511
457.6,-43.0558
457.7,-43.0364
457.8,-43.0195
457.9,-42.9958
458,-43.001
458.1,-42.958
458.2,-42.9332
458.3,-42.9236
458.4,-42.898
458.5,-42.8758
458.6,-42.8588
458.7,-42.8575
458.8,-42.831
458.9,-42.8145
459,-42.7724
459.1,-42.7618
459.2,-42.7613
459.3,-42.7212
459.4,-42.7095
459.5,-42.6937
459.6,-42.6582
459.7,-42.6228
459.8,-42.6202
459.9,-42.615
460,-42.5838
460.1,-42.5606
460.2,-42.5407
460.3,-42.5235
460.4,-42.5151
460.5,-42.495
460.6,-42.4776
460.7,-42.4401
460.8,-42.4287
460.9,-42.4163
461,-42.3883
461.1,-42.3802
461.2,-42.327
461.3,-42.3333
461.4,-42.2877
461.5,-42.2857
461.6,-42.2715
461.7,-42.2559
461.8,-42.2536
461.9,-42.2211
462,-42.1593
462.1,-42.1455
462.2,-42.1257
462.3,-42.113
462.4,-42.1035
462.5,-42.0664
462.6,-42.0524
462.7,-42.0296
462.8,-42.0025
462.9,-41.978
463,-41.9676
463.1,-41.9443
463.2,-41.9401
463.3,-41.9096
463.4,-41.8911
463.5,-41.8636
463.6,-41.8362
463.7,-41.8185
463.8,-41.7911
463.9,-41.7698
464,-41.7362
464.1,-41.7341
464.2,-41.7117
464.3,-41.6923
464.4,-41.6609
464.5,-41.6426
464.6,-41.6094
464.7,-41.5815
464.8,-41.5724
464.9,-41.5383
465,-41.5194
465.1,-41.5004
465.2,-41.4843
465.3,-41.4578
465.4,-41.4372
465.5,-41.4129
465.6,-41.3874
465.7,-41.361
465.8,-41.3375
465.9,-41.3181
466,-41.2782
466.1,-41.2761
466.2,-41.2509
466.3,-41.2023
466.4,-41.1804
466.5,-41.1751
466.6,-41.1378
466.7,-41.122
466.8,-41.0987
466.9,-41.0749
467,-41.0399
467.1,-41.0237
467.2,-40.9982
467.3,-40.9734
467.4,-40.9348
467.5,-40.9248
467.6,-40.9068
467.7,-40.8762
467.8,-40.8425
467.9,-40.8224
468,-40.8049
468.1,-40.7701
468.2,-40.7588
468.3,-40.7211
468.4,-40.6815
468.5,-40.6807
468.6,-40.6575
468.7,-40.6031
468.8,-40.6148
468.9,-40.5629
469,-40.5458
469.1,-40.5237
469.2,-40.4824
469.3,-40.4768
469.4,-40.441
469.5,-40.4114
469.6,-40.3942
469.7,-40.3622
469.8,-40.339
469.9,-40.318
470,-40.2755
470.1,-40.2466
470.2,-40.2475
470.3,-40.1995
470.4,-40.1699
470.5,-40.171
470.6,-40.1136
470.7,-40.0947
470.8,-40.0588
470.9,-40.0463
471,-40.0109
471.1,-39.9947
471.2,-39.946
471.3,-39.9313
471.4,-39.8965
471.5,-39.8634
471.6,-39.8435
471.7,-39.7987
471.8,-39.7947
471.9,-39.7561
472,-39.73
472.1,-39.6909
472.2,-39.6698
472.3,-39.6369
472.4,-39.6194
472.5,-39.5812
472.6,-39.5539
472.7,-39.5356
472.8,-39.4924
472.9,-39.4732
473,-39.4279
473.1,-39.4082
473.2,-39.3788
473.3,-39.344
473.4,-39.3142
473.5,-39.2955
473.6,-39.2565
473.7,-39.2218
473.8,-39.1943
473.9,-39.1665
474,-39.1403
474.1,-39.0977
474.2,-39.084
474.3,-39.0327
474.4,-39.0088
474.5,-38.9695
474.6,-38.9493
474.7,-38.9062
474.8,-38.8779
474.9,-38.8394
475,-38.8036
475.1,-38.7851
475.2,-38.747
475.3,-38.713
475.4,-38.6814
475.5,-38.6556
475.6,-38.6262
475.7,-38.5826
475.8,-38.547
475.9,-38.5084
476,-38.4759
476.1,-38.4584
476.2,-38.4119
476.3,-38.3841
476.4,-38.3461
476.5,-38.3147
476.6,-38.2808
476.7,-38.2466
476.8,-38.2109
476.9,-38.1742
477,-38.1507
477.1,-38.116
477.2,-38.076
477.3,-38.0293
477.4,-37.9946
477.5,-37.959
477.6,-37.9396
477.7,-37.8837
477.8,-37.8607
477.9,-37.8169
478,-37.7799
478.1,-37.7504
478.2,-37.7147
478.3,-37.6681
478.4,-37.6167
478.5,-37.6078
478.6,-37.5719
478.7,-37.5226
478.8,-37.4864
478.9,-37.4408
479,-37.4199
479.1,-37.3792
479.2,-37.3302
479.3,-37.2984
479.4,-37.2583
479.5,-37.2092
479.6,-37.1706
479.7,-37.1302
479.8,-37.1006
479.9,-37.0655
480,-37.0106
480.1,-36.9781
480.2,-36.9504
480.3,-36.8917
480.4,-36.8576
480.5,-36.8187
480.6,-36.78
480.7,-36.7313
480.8,-36.7022
480.9,-36.6501
481,-36.6034
481.1,-36.5631
481.2,-36.5238
481.3,-36.486
481.4,-36.436
481.5,-36.3977
481.6,-36.3532
481.7,-36.3114
481.8,-36.262
481.9,-36.2195
482,-36.1733
482.1,-36.1355
482.2,-36.0792
482.3,-36.0398
482.4,-35.9847
482.5,-35.9398
482.6,-35.8955
482.7,-35.8464
482.8,-35.8003
482.9,-35.7578
483,-35.7084
483.1,-35.6676
483.2,-35.6135
483.3,-35.5597
483.4,-35.5185
483.5,-35.481
483.6,-35.4238
483.7,-35.3772
483.8,-35.3319
483.9,-35.2908
484,-35.229
484.1,-35.1764
484.2,-35.1221
484.3,-35.0883
484.4,-35.0317
484.5,-34.9707
484.6,-34.9313
484.7,-34.8686
484.8,-34.824
484.9,-34.7639
485,-34.7224
485.1,-34.6576
485.2,-34.6056
485.3,-34.5457
485.4,-34.4954
485.5,-34.4521
485.6,-34.3889
485.7,-34.3251
485.8,-34.2728
485.9,-34.2252
486,-34.1586
486.1,-34.1165
486.2,-34.0561
486.3,-33.9935
486.4,-33.936
486.5,-33.8851
486.6,-33.8266
486.7,-33.7585
486.8,-33.6979
486.9,-33.6453
487,-33.5749
487.1,-33.5154
487.2,-33.4459
487.3,-33.382
487.4,-33.3273
487.5,-33.2693
487.6,-33.1993
487.7,-33.1394
487.8,-33.0722
487.9,-33.0008
488,-32.9381
488.1,-32.8814
488.2,-32.8083
488.3,-32.7461
488.4,-32.6757
488.5,-32.6055
488.6,-32.5396
488.7,-32.4768
488.8,-32.404
488.9,-32.3323
489,-32.2619
489.1,-32.1855
489.2,-32.115
489.3,-32.0392
489.4,-31.9707
489.5,-31.8941
489.6,-31.8225
489.7,-31.7431
489.8,-31.6727
489.9,-31.588
490,-31.5092
490.1,-31.4304
490.2,-31.3522
490.3,-31.2721
490.4,-31.1909
490.5,-31.1077
490.6,-31.0261
490.7,-30.9525
490.8,-30.8664
490.9,-30.7861
491,-30.6931
491.1,-30.6089
491.2,-30.521
491.3,-30.428
491.4,-30.3413
491.5,-30.2548
491.6,-30.1646
491.7,-30.0723
491.8,-29.9788
491.9,-29.8828
492,-29.7911
492.1,-29.686
492.2,-29.6008
492.3,-29.4967
492.4,-29.3987
492.5,-29.2957
492.6,-29.1977
492.7,-29.0913
492.8,-28.9896
492.9,-28.8826
493,-28.7709
493.1,-28.6679
493.2,-28.5496
493.3,-28.4454
493.4,-28.3279
493.5,-28.216
493.6,-28.1071
493.7,-27.9907
493.8,-27.8617
493.9,-27.7446
494,-27.6195
494.1,-27.4951
494.2,-27.3715
494.3,-27.2414
494.4,-27.1048
494.5,-26.9795
494.6,-26.8475
494.7,-26.7115
494.8,-26.5697
494.9,-26.429
495,-26.2879
495.1,-26.144
495.2,-25.9915
495.3,-25.8394
495.4,-25.6818
495.5,-25.5318
495.6,-25.372
495.7,-25.2135
495.8,-25.0442
495.9,-24.8684
496,-24.7076
496.1,-24.5263
496.2,-24.35
496.3,-24.1695
496.4,-23.9797
496.5,-23.7857
496.6,-23.5872
496.7,-23.389
496.8,-23.18
496.9,-22.9685
497,-22.7621
497.1,-22.544
497.2,-22.3185
497.3,-22.0851
497.4,-21.8462
497.5,-21.598
497.6,-21.3477
497.7,-21.0818
497.8,-20.816
497.9,-20.5381
498,-20.251
498.1,-19.9504
498.2,-19.6449
498.3,-19.3216
498.4,-18.9912
498.5,-18.651
498.6,-18.2899
498.7,-17.9189
498.8,-17.5204
498.9,-17.1226
499,-16.6798
499.1,-16.2424
499.2,-15.7629
499.3,-15.2616
499.4,-14.7161
499.5,-14.1416
499.6,-13.5264
499.7,-12.861
499.8,-12.1552
499.9,-11.3746
500,-10.514
500.1,-9.57252
500.2,-8.50359
500.3,-7.28393
500.4,-5.87572
500.5,-4.19184
500.6,-2.02284
500.7,0.752282
500.8,4.89243
500.9,13.1168
501,17.8661
501.1,6.43318
501.2,1.65771
501.3,-1.41083
501.4,-3.61518
501.5,-5.43649
501.6,-6.93307
501.7,-8.19907
501.8,-9.30678
501.9,-10.297
502,-11.1736
502.1,-11.9749
502.2,-12.7159
502.3,-13.3863
502.4,-14.0113
502.5,-14.5954
502.6,-15.1394
502.7,-15.6635
502.8,-16.1514
502.9,-16.6259
503,-17.0525
503.1,-17.4815
503.2,-17.8702
503.3,-18.2549
503.4,-18.6171
503.5,-18.9732
503.6,-19.3075
503.7,-19.6283
503.8,-19.9456
503.9,-20.2392
504,-20.5341
504.1,-20.8161
504.2,-21.0954
504.3,-21.3576
504.4,-21.6159
504.5,-21.8654
504.6,-22.1105
504.7,-22.3459
504.8,-22.5784
504.9,-22.8063
505,-23.0336
505.1,-23.2392
505.2,-23.4437
505.3,-23.652
505.4,-23.8459
505.5,-24.0394
505.6,-24.2321
505.7,-24.4199
505.8,-24.6052
505.9,-24.7784
506,-24.9625
506.1,-25.1239
506.2,-25.2892
506.3,-25.4588
506.4,-25.6294
506.5,-25.7914
506.6,-25.943
506.7,-26.0915
506.8,-26.2425
506.9,-26.3941
507,-26.5426
507.1,-26.6852
507.2,-26.8264
507.3,-26.9698
507.4,-27.1041
507.5,-27.2454
507.6,-27.3681
507.7,-27.5017
507.8,-27.6307
507.9,-27.7589
508,-27.8843
508.1,-28.0113
508.2,-28.1269
508.3,-28.2511
508.4,-28.3783
508.5,-28.4873
508.6,-28.6056
508.7,-28.7252
508.8,-28.8324
508.9,-28.9431
509,-29.0451
509.1,-29.1614
509.2,-29.27
509.3,-29.3702
509.4,-29.4803
509.5,-29.5861
509.6,-29.6881
509.7,-29.7842
509.8,-29.8986
509.9,-29.9852
510,-30.0901
510.1,-30.1796
510.2,-30.2792
510.3,-30.3712
510.4,-30.4719
510.5,-30.5582
510.6,-30.6522
510.7,-30.7421
510.8,-30.8293
510.9,-30.9224
511,-31.0052
511.1,-31.102
511.2,-31.1859
511.3,-31.2796
511.4,-31.3619
511.5,-31.4406
511.6,-31.5202
511.7,-31.6071
511.8,-31.6866
511.9,-31.768
512,-31.8442
512.1,-31.9135
512.2,-32.0048
512.3,-32.0796
512.4,-32.1553
512.5,-32.2321
512.6,-32.3166
512.7,-32.3858
512.8,-32.47
512.9,-32.526
513,-32.6064
513.1,-32.6833
513.2,-32.7582
513.3,-32.8182
513.4,-32.9084
513.5,-32.9702
513.6,-33.0372
513.7,-33.1188
513.8,-33.1789
513.9,-33.2509
514,-33.3188
514.1,-33.379
514.2,-33.4447
514.3,-33.519
514.4,-33.5852
514.5,-33.6542
514.6,-33.7259
514.7,-33.7827
514.8,-33.8316
514.9,-33.919
515,-33.9717
515.1,-34.0345
515.2,-34.085
515.3,-34.1531
515.4,-34.2311
515.5,-34.2914
515.6,-34.3375
515.7,-34.3943
515.8,-34.4586
515.9,-34.5411
516,-34.5726
516.1,-34.6552
516.2,-34.6918
516.3,-34.7526
516.4,-34.8139
516.5,-34.8707
516.6,-34.9397
516.7,-34.985
516.8,-35.0326
516.9,-35.0915
517,-35.1509
517.1,-35.2184
517.2,-35.2695
517.3,-35.3299
517.4,-35.3764
517.5,-35.4265
517.6,-35.4732
517.7,-35.5533
517.8,-35.6008
517.9,-35.6417
518,-35.6887
518.1,-35.745
518.2,-35.7961
518.3,-35.8433
518.4,-35.9037
518.5,-35.9682
518.6,-35.9966
518.7,-36.0469
518.8,-36.0981
518.9,-36.1459
519,-36.2039
519.1,-36.2523
519.2,-36.3208
519.3,-36.3419
519.4,-36.4125
519.5,-36.4406
519.6,-36.4944
519.7,-36.5629
519.8,-36.5837
519.9,-36.6377
520,-36.6728
520.1,-36.7218
520.2,-36.7747
520.3,-36.8292
520.4,-36.8606
520.5,-36.9038
520.6,-36.9535
520.7,-36.9885
520.8,-37.0463
520.9,-37.0912
521,-37.1327
521.1,-37.1754
521.2,-37.218
521.3,-37.2765
521.4,-37.3132
521.5,-37.3665
521.6,-37.403
521.7,-37.4465
521.8,-37.4816
521.9,-37.5357
522,-37.5681
522.1,-37.6196
522.2,-37.6565
522.3,-37.7121
522.4,-37.7427
522.5,-37.7654
522.6,-37.8378
522.7,-37.8695
522.8,-37.9167
522.9,-37.9532
523,-37.9966
523.1,-38.0326
523.2,-38.0784
523.3,-38.1172
523.4,-38.1541
523.5,-38.2019
523.6,-38.2361
523.7,-38.2793
523.8,-38.3045
523.9,-38.3536
524,-38.3968
524.1,-38.4268
524.2,-38.4865
524.3,-38.4964
524.4,-38.5466
524.5,-38.5901
524.6,-38.6145
524.7,-38.6686
524.8,-38.7048
524.9,-38.7291
525,-38.7788
525.1,-38.8013
525.2,-38.8296
525.3,-38.8669
525.4,-38.9294
525.5,-38.9639
525.6,-38.9835
525.7,-39.0425
525.8,-39.0658
525.9,-39.1186
526,-39.1428
526.1,-39.1685
526.2,-39.2069
526.3,-39.2467
526.4,-39.2894
526.5,-39.3186
526.6,-39.366
526.7,-39.3792
526.8,-39.4329
526.9,-39.4631
527,-39.4769
527.1,-39.5228
527.2,-39.5642
527.3,-39.6006
527.4,-39.6361
527.5,-39.6655
527.6,-39.697
527.7,-39.7207
527.8,-39.7708
527.9,-39.7936
528,-39.8363
528.1,-39.8621
528.2,-39.9044
528.3,-39.9185
528.4,-39.9731
528.5,-40.0071
528.6,-40.0427
528.7,-40.0547
528.8,-40.0901
528.9,-40.1283
529,-40.1731
529.1,-40.1915
529.2,-40.2317
529.3,-40.2608
529.4,-40.2942
529.5,-40.3405
529.6,-40.3527
529.7,-40.3659
529.8,-40.4195
529.9,-40.4455
530,-40.4828
530.1,-40.5263
530.2,-40.5332
530.3,-40.5901
530.4,-40.5871
530.5,-40.6167
530.6,-40.6504
530.7,-40.6918
530.8,-40.7293
530.9,-40.7607
531,-40.7903
531.1,-40.8006
531.2,-40.8281
531.3,-40.8631
531.4,-40.8965
531.5,-40.9403
531.6,-40.9716
531.7,-40.9938
531.8,-41.0279
531.9,-41.045
532,-41.0892
532.1,-41.1149
532.2,-41.124
532.3,-41.178
532.4,-41.1949
532.5,-41.2263
532.6,-41.2783
532.7,-41.2816
532.8,-41.3016
532.9,-41.3328
533,-41.369
533.1,-41.4057
533.2,-41.4172
533.3,-41.4604
533.4,-41.4771
533.5,-41.5197
533.6,-41.5309
533.7,-41.56
533.8,-41.6205
533.9,-41.601
534,-41.6566
534.1,-41.6952
534.2,-41.7158
534.3,-41.7417
534.4,-41.744
534.5,-41.7903
534.6,-41.8097
534.7,-41.8514
534.8,-41.8714
534.9,-41.9037
535,-41.9059
535.1,-41.9612
535.2,-41.9892
535.3,-41.9965
535.4,-42.0233
535.5,-42.0709
535.6,-42.0743
535.7,-42.11
535.8,-42.1263
535.9,-42.1638
536,-42.2052
536.1,-42.2031
536.2,-42.2437
536.3,-42.2443
536.4,-42.2938
536.5,-42.324
536.6,-42.3419
536.7,-42.3587
536.8,-42.3804
536.9,-42.4046
537,-42.4416
537.1,-42.4794
537.2,-42.5152
537.3,-42.5181
537.4,-42.549
537.5,-42.5582
537.6,-42.5771
537.7,-42.6034
537.8,-42.6624
537.9,-42.6725
538,-42.6836
538.1,-42.7197
538.2,-42.7615
538.3,-42.7673
538.4,-42.7902
538.5,-42.8298
538.6,-42.8719
538.7,-42.8656
538.8,-42.9036
538.9,-42.9026
539,-42.9559
539.1,-42.9711
539.2,-42.9787
539.3,-43.0444
539.4,-43.0409
539.5,-43.047
539.6,-43.08
539.7,-43.1073
539.8,-43.1261
539.9,-43.177
540,-43.2072
540.1,-43.2121
540.2,-43.2535
540.3,-43.2404
540.4,-43.2371
540.5,-43.288
540.6,-43.3088
540.7,-43.3457
540.8,-43.3878
540.9,-43.3895
541,-43.4198
541.1,-43.4449
541.2,-43.4643
541.3,-43.4778
541.4,-43.5112
541.5,-43.4948
541.6,-43.5524
541.7,-43.5702
541.8,-43.5906
541.9,-43.6359
542,-43.6584
542.1,-43.6642
542.2,-43.6541
542.3,-43.7146
542.4,-43.717
542.5,-43.7413
542.6,-43.78
542.7,-43.7968
542.8,-43.8038
542.9,-43.8277
543,-43.8723
543.1,-43.9017
543.2,-43.893
543.3,-43.9265
543.4,-43.9808
543.5,-43.9435
543.6,-43.9822
543.7,-43.9998
543.8,-44.0205
543.9,-44.0549
544,-44.0703
544.1,-44.1276
544.2,-44.1148
544.3,-44.1367
544.4,-44.1409
544.5,-44.1955
544.6,-44.1817
544.7,-44.2501
544.8,-44.252
544.9,-44.2708
545,-44.2747
545.1,-44.3254
545.2,-44.3413
545.3,-44.3342
545.4,-44.369
545.5,-44.3843
545.6,-44.4387
545.7,-44.4245
545.8,-44.4589
545.9,-44.4839
546,-44.4853
546.1,-44.5222
546.2,-44.5341
546.3,-44.5587
546.4,-44.5683
546.5,-44.6024
546.6,-44.626
546.7,-44.629
546.8,-44.6768
546.9,-44.7144
547,-44.6887
547.1,-44.7483
547.2,-44.7587
547.3,-44.7657
547.4,-44.7818
547.5,-44.7902
547.6,-44.8283
547.7,-44.831
547.8,-44.8575
547.9,-44.8974
548,-44.9252
548.1,-44.8807
548.2,-44.9163
548.3,-44.9441
548.4,-44.9923
548.5,-44.9805
548.6,-45.0072
548.7,-45.0436
548.8,-45.0345
548.9,-45.0872
549,-45.0789
549.1,-45.1258
549.2,-45.122
549.3,-45.1408
549.4,-45.1804
549.5,-45.1838
549.6,-45.2251
549.7,-45.2256
549.8,-45.2274
549.9,-45.2528
550,-45.2924
550.1,-45.2676
550.2,-45.3144
550.3,-45.3253
550.4,-45.3371
550.5,-45.404
550.6,-45.5432
550.7,-45.3972
550.8,-45.4019
550.9,-45.4412
551,-45.4762
551.1,-45.4911
551.2,-45.5092
551.3,-45.5371
551.4,-45.5605
551.5,-45.5562
551.6,-45.5765
551.7,-45.6076
551.8,-45.6266
551.9,-45.6297
552,-45.6621
552.1,-45.6538
552.2,-45.6942
552.3,-45.7247
552.4,-45.7351
552.5,-45.7581
552.6,-45.7656
552.7,-45.7889
552.8,-45.8218
552.9,-45.8147
553,-45.8342
553.1,-45.8393
553.2,-45.878
553.3,-45.9007
553.4,-45.9133
553.5,-45.9279
553.6,-45.9425
553.7,-45.9649
553.8,-45.9947
553.9,-46.0088
554,-45.998
554.1,-46.0323
554.2,-46.0724
554.3,-46.1064
554.4,-46.0757
554.5,-46.088
554.6,-46.0966
554.7,-46.1253
554.8,-46.1474
554.9,-46.2067
555,-46.1982
555.1,-46.1769
555.2,-46.2159
555.3,-46.2665
555.4,-46.2415
555.5,-46.2539
555.6,-46.3092
555.7,-46.3095
555.8,-46.303
555.9,-46.3524
556,-46.3315
556.1,-46.3642
556.2,-46.3753
556.3,-46.4383
556.4,-46.4216
556.5,-46.4464
556.6,-46.4559
556.7,-46.4971
556.8,-46.4839
556.9,-46.5339
557,-46.5161
557.1,-46.5528
557.2,-46.5693
557.3,-46.5601
557.4,-46.6052
557.5,-46.6176
557.6,-46.6354
557.7,-46.6669
557.8,-46.6652
557.9,-46.6796
558,-46.7209
558.1,-46.6799
558.2,-46.7247
558.3,-46.7409
558.4,-46.7547
558.5,-46.7575
558.6,-46.8507
558.7,-46.833
558.8,-46.8509
558.9,-46.8567
559,-46.8475
559.1,-46.8981
559.2,-46.8805
559.3,-46.89
559.4,-46.9234
559.5,-46.9318
559.6,-46.9525
559.7,-47.0104
559.8,-47
559.9,-46.9973
560,-46.9994
560.1,-47.0472
560.2,-47.0656
560.3,-47.0802
560.4,-47.0769
560.5,-47.0747
560.6,-47.1304
560.7,-47.1357
560.8,-47.2005
560.9,-47.2101
561,-47.216
561.1,-47.2302
561.2,-47.2441
561.3,-47.25
561.4,-47.2498
561.5,-47.2879
561.6,-47.2868
561.7,-47.2778
561.8,-47.3216
561.9,-47.3383
562,-47.3282
562.1,-47.3373
562.2,-47.3717
562.3,-47.399
562.4,-47.4027
562.5,-47.4112
562.6,-47.4218
562.7,-47.4484
562.8,-47.437
562.9,-47.4856
563,-47.5161
563.1,-47.4983
563.2,-47.5546
563.3,-47.5245
563.4,-47.576
563.5,-47.5547
563.6,-47.5968
563.7,-47.636
563.8,-47.6348
563.9,-47.6346
564,-47.6781
564.1,-47.6643
564.2,-47.6954
564.3,-47.6964
564.4,-47.7235
564.5,-47.7485
564.6,-47.7898
564.7,-47.7537
564.8,-47.7928
564.9,-47.7604
565,-47.8074
565.1,-47.8262
565.2,-47.8486
565.3,-47.8422
565.4,-47.881
565.5,-47.8432
565.6,-47.9009
565.7,-47.8911
565.8,-47.9371
565.9,-47.9249
566,-47.9444
566.1,-47.9514
566.2,-47.9897
566.3,-48.0122
566.4,-47.9805
566.5,-48.0311
566.6,-48.0282
566.7,-48.0539
566.8,-48.0666
566.9,-48.0834
567,-48.0425
567.1,-48.1274
567.2,-48.1187
567.3,-48.1188
567.4,-48.1593
567.5,-48.1559
567.6,-48.1894
567.7,-48.1973
567.8,-48.2405
567.9,-48.2681
568,-48.229
568.1,-48.2139
568.2,-48.2975
568.3,-48.2774
568.4,-48.3271
568.5,-48.3553
568.6,-48.3316
568.7,-48.3528
568.8,-48.3553
568.9,-48.3556
569,-48.414
569.1,-48.409
569.2,-48.3811
569.3,-48.4071
569.4,-48.441
569.5,-48.5134
569.6,-48.4714
569.7,-48.4687
569.8,-48.487
569.9,-48.4975
570,-48.5447
570.1,-48.5113
570.2,-48.5319
570.3,-48.5539
570.4,-48.5456
570.5,-48.5967
570.6,-48.6421
570.7,-48.6191
570.8,-48.6347
570.9,-48.6797
571,-48.6746
571.1,-48.697
571.2,-48.6862
571.3,-48.7262
571.4,-48.7378
571.5,-48.7458
571.6,-48.7784
571.7,-48.757
571.8,-48.745
571.9,-48.7807
572,-48.8097
572.1,-48.7765
572.2,-48.8163
572.3,-48.841
572.4,-48.8306
572.5,-48.8226
572.6,-48.8796
572.7,-48.8587
572.8,-48.9022
572.9,-48.9377
573,-48.9463
573.1,-48.9249
573.2,-48.9318
573.3,-49.0427
573.4,-48.9977
573.5,-48.9731
573.6,-48.9933
573.7,-49.0597
573.8,-49.0702
573.9,-49.0463
574,-49.077
574.1,-49.092
574.2,-49.1223
574.3,-49.1225
574.4,-49.1443
574.5,-49.1227
574.6,-49.132
574.7,-49.1527
574.8,-49.1805
574.9,-49.1794
575,-49.2008
575.1,-49.2227
575.2,-49.2097
575.3,-49.2168
575.4,-49.2247
575.5,-49.2536
575.6,-49.2714
575.7,-49.2652
575.8,-49.3061
575.9,-49.3334
576,-49.3445
576.1,-49.3406
576.2,-49.3391
576.3,-49.3636
576.4,-49.3781
576.5,-49.3542
576.6,-49.3661
576.7,-49.4306
576.8,-49.4118
576.9,-49.429
577,-49.4348
577.1,-49.4788
577.2,-49.4919
577.3,-49.4885
577.4,-49.518
577.5,-49.5361
577.6,-49.5884
577.7,-49.5171
577.8,-49.5407
577.9,-49.5154
578,-49.6137
578.1,-49.5649
578.2,-49.61
578.3,-49.5948
578.4,-49.6877
578.5,-49.6248
578.6,-49.6722
578.7,-49.6506
578.8,-49.6699
578.9,-49.6902
579,-49.6889
579.1,-49.6997
579.2,-49.7244
579.3,-49.7194
579.4,-49.7435
579.5,-49.7676
579.6,-49.784
579.7,-49.8024
579.8,-49.7591
579.9,-49.7835
580,-49.813
580.1,-49.8244
580.2,-49.8761
580.3,-49.8765
580.4,-49.8974
580.5,-49.9163
580.6,-49.8304
580.7,-49.9491
580.8,-49.8765
580.9,-49.9805
581,-49.9489
581.1,-49.9908
581.2,-49.8846
581.3,-49.8302
581.4,-50.11
581.5,-50.0907
581.6,-50.0604
581.7,-50.103
581.8,-50.0792
581.9,-50.0678
582,-50.0809
582.1,-50.1176
582.2,-50.1261
582.3,-50.1074
582.4,-50.1088
582.5,-50.1702
582.6,-50.138
582.7,-50.2024
582.8,-50.1964
582.9,-50.1733
583,-50.1901
583.1,-50.2275
583.2,-50.1974
583.3,-50.2387
583.4,-50.2524
583.5,-50.2273
583.6,-50.2487
583.7,-50.2344
583.8,-50.2594
583.9,-50.3185
584,-50.278
584.1,-50.3518
584.2,-50.355
584.3,-50.3444
584.4,-50.3955
584.5,-50.3203
584.6,-50.3826
584.7,-50.3666
584.8,-50.4172
584.9,-50.3983
585,-50.44
585.1,-50.4481
585.2,-50.5186
585.3,-50.4473
585.4,-50.5102
585.5,-50.4626
585.6,-50.5342
585.7,-50.472
585.8,-50.4976
585.9,-50.5319
586,-50.5508
586.1,-50.5471
586.2,-50.5719
586.3,-50.5621
586.4,-50.6811
586.5,-50.6275
586.6,-50.606
586.7,-50.5995
586.8,-50.6305
586.9,-50.6766
587,-50.6387
587.1,-50.6879
587.2,-50.6492
587.3,-50.7206
587.4,-50.7111
587.5,-50.7535
587.6,-50.7348
587.7,-50.7327
587.8,-50.7575
587.9,-50.7441
588,-50.7857
588.1,-50.8158
588.2,-50.8249
588.3,-50.8383
588.4,-50.8611
588.5,-50.8551
588.6,-50.8367
588.7,-50.8544
588.8,-50.839
588.9,-50.8177
589,-50.8299
589.1,-50.8428
589.2,-50.9461
589.3,-50.9418
589.4,-50.921
589.5,-50.9005
589.6,-50.8902
589.7,-50.9671
589.8,-50.9355
589.9,-51.0335
590,-50.972
590.1,-51.0417
590.2,-51.0376
590.3,-51.0229
590.4,-51.0877
590.5,-51.0383
590.6,-51.0588
590.7,-51.0567
590.8,-51.0507
590.9,-51.1298
591,-51.1467
591.1,-51.1406
591.2,-51.1528
591.3,-51.1491
591.4,-51.1135
591.5,-51.1168
591.6,-51.1787
591.7,-51.198
591.8,-51.158
591.9,-51.2383
592,-51.1947
592.1,-51.257
592.2,-51.2994
592.3,-51.2571
592.4,-51.3063
592.5,-51.2792
592.6,-51.2586
592.7,-51.3453
592.8,-51.2951
592.9,-51.2872
593,-51.3182
593.1,-51.3548
593.2,-51.3381
593.3,-51.3079
593.4,-51.3406
593.5,-51.3494
593.6,-51.4407
593.7,-51.4132
593.8,-51.4019
593.9,-51.4612
594,-51.5164
594.1,-51.4502
594.2,-51.4322
594.3,-51.4575
594.4,-51.4479
594.5,-51.5417
594.6,-51.5241
594.7,-51.5066
594.8,-51.552
594.9,-51.5274
595,-51.537
595.1,-51.5402
595.2,-51.5176
595.3,-51.5144
595.4,-51.6953
595.5,-51.6833
595.6,-51.6253
595.7,-51.5226
595.8,-51.6063
595.9,-51.7221
596,-51.6323
596.1,-51.6561
596.2,-51.6631
596.3,-51.6698
596.4,-51.6604
596.5,-51.6885
596.6,-51.6893
596.7,-51.6861
596.8,-51.7083
596.9,-51.7068
597,-51.8691
597.1,-51.7536
597.2,-51.783
597.3,-51.8043
597.4,-51.802
597.5,-51.789
597.6,-51.8048
597.7,-51.7739
597.8,-51.8811
597.9,-51.9077
598,-51.882
598.1,-51.8749
598.2,-51.9001
598.3,-51.8941
598.4,-51.8611
598.5,-51.9243
598.6,-51.9741
598.7,-51.8677
598.8,-51.9563
598.9,-52.0017
599,-51.952
599.1,-51.9592
599.2,-51.9986
599.3,-51.9997
599.4,-52.0262
599.5,-51.9912
599.6,-52.0134
599.7,-52.0875
599.8,-52.0891
599.9,-52.0029
600,-52.0872
600.1,-52.1044
600.2,-52.1173
600.3,-52.1247
600.4,-52.0548
600.5,-52.0852
600.6,-51.9308
600.7,-52.1507
600.8,-52.1187
600.9,-52.1221
601,-52.1893
601.1,-52.1954
601.2,-52.167
601.3,-52.222
601.4,-52.1577
601.5,-52.1588
601.6,-52.1107
601.7,-52.2083
601.8,-52.1491
601.9,-52.0722
602,-48.1763
602.1,-52.4101
602.2,-52.357
602.3,-52.2877
602.4,-52.3691
602.5,-52.3967
602.6,-52.3187
602.7,-52.3664
602.8,-52.3834
602.9,-52.404
603,-52.3583
603.1,-52.4232
603.2,-52.3904
603.3,-52.4178
603.4,-52.4204
603.5,-52.4437
603.6,-52.4278
603.7,-52.3946
603.8,-52.5388
603.9,-52.3948
604,-52.4975
604.1,-52.4958
604.2,-52.5532
604.3,-52.4913
604.4,-52.5585
604.5,-52.8614
604.6,-52.4843
604.7,-52.5167
604.8,-52.5452
604.9,-52.5518
605,-52.6068
605.1,-52.5478
605.2,-52.5879
605.3,-52.5376
605.4,-52.5492
605.5,-52.5721
605.6,-52.6116
605.7,-52.6511
605.8,-52.6457
605.9,-52.6652
606,-52.6607
606.1,-52.6415
606.2,-52.7238
606.3,-52.689
606.4,-52.6664
606.5,-52.7
606.6,-52.6714
606.7,-52.7551
606.8,-52.7043
606.9,-52.787
607,-52.7202
607.1,-52.7306
607.2,-52.8057
607.3,-52.7289
607.4,-52.7665
607.5,-52.7592
607.6,-52.8005
607.7,-52.8177
607.8,-52.8223
607.9,-52.7972
608,-52.8377
608.1,-52.8464
608.2,-52.8584
608.3,-52.8494
608.4,-52.8629
608.5,-52.9202
608.6,-52.8753
608.7,-52.9795
608.8,-52.8828
608.9,-52.886
609,-52.9637
609.1,-52.9758
609.2,-52.9013
609.3,-52.9822
609.4,-52.948
609.5,-52.886
609.6,-53.0502
609.7,-53.0368
609.8,-53.0199
609.9,-53.0694
610,-53.0656
610.1,-53.1022
610.2,-53.0911
610.3,-53.0346
610.4,-53.1074
610.5,-53.0717
610.6,-53.0675
610.7,-53.1436
610.8,-53.0851
610.9,-53.0549
611,-53.1219
611.1,-53.1104
611.2,-53.1208
611.3,-53.1275
611.4,-53.1302
611.5,-53.1673
611.6,-53.158
611.7,-53.1642
611.8,-53.2004
611.9,-53.2195
612,-53.1647
612.1,-53.2994
612.2,-53.2395
612.3,-53.257
612.4,-53.257
612.5,-53.2925
612.6,-53.2727
612.7,-53.2769
612.8,-53.2704
612.9,-53.3436
613,-53.3607
613.1,-53.3498
613.2,-53.3166
613.3,-53.3536
613.4,-53.3633
613.5,-53.372
613.6,-53.4264
613.7,-53.4763
613.8,-53.4042
613.9,-53.3766
614,-53.4225
614.1,-53.4612
614.2,-53.4532
614.3,-53.4969
614.4,-53.4514
614.5,-53.516
614.6,-53.4535
614.7,-53.4758
614.8,-53.4381
614.9,-53.4878
615,-53.5447
615.1,-53.5604
615.2,-53.5531
615.3,-53.5538
615.4,-53.5379
615.5,-53.5852
615.6,-53.571
615.7,-53.5536
615.8,-53.611
615.9,-53.5493
616,-53.6938
616.1,-53.6173
616.2,-53.5938
616.3,-53.6521
616.4,-53.5632
616.5,-53.6729
616.6,-53.6761
616.7,-53.6568
616.8,-53.618
616.9,-53.6961
617,-53.7581
617.1,-53.6082
617.2,-53.7351
617.3,-53.6416
617.4,-53.6597
617.5,-53.7782
617.6,-53.7016
617.7,-53.7331
617.8,-53.7716
617.9,-53.7549
618,-53.8147
618.1,-53.8023
618.2,-53.846
618.3,-53.808
618.4,-53.7155
618.5,-53.7564
618.6,-53.8796
618.7,-53.8109
618.8,-53.8288
618.9,-53.8369
619,-53.8582
619.1,-53.8473
619.2,-53.9196
619.3,-53.943
619.4,-53.8998
619.5,-53.8559
619.6,-53.8494
619.7,-53.9574
619.8,-53.9719
619.9,-53.9071
620,-53.9932
620.1,-54.0053
620.2,-53.8827
620.3,-53.9871
620.4,-53.9929
620.5,-53.951
620.6,-53.9823
620.7,-53.9605
620.8,-53.9044
620.9,-54.0072
621,-54.0527
621.1,-54.0065
621.2,-54.0031
621.3,-54.0463
621.4,-54.1256
621.5,-54.1354
621.6,-54.0541
621.7,-54.1129
621.8,-54.0049
621.9,-54.061
622,-54.2283
622.1,-54.1184
622.2,-54.0758
622.3,-54.084
622.4,-54.2064
622.5,-54.2151
622.6,-54.1433
622.7,-54.1484
622.8,-54.1812
622.9,-54.2167
623,-54.1259
623.1,-54.2802
623.2,-54.1698
623.3,-54.2651
623.4,-54.2487
623.5,-54.2242
623.6,-54.243
623.7,-54.2556
623.8,-54.2444
623.9,-54.2839
624,-54.2934
624.1,-54.2708
624.2,-54.288
624.3,-54.3263
624.4,-54.3401
624.5,-54.279
624.6,-54.3971
624.7,-54.3697
624.8,-54.4727
624.9,-54.2825
625,-54.3978
625.1,-54.3525
625.2,-54.3789
625.3,-54.4057
625.4,-54.3937
625.5,-54.3947
625.6,-54.4801
625.7,-54.5103
625.8,-54.4266
625.9,-54.4941
626,-54.4042
626.1,-54.5448
626.2,-54.4835
626.3,-54.4583
626.4,-54.5235
626.5,-54.5062
626.6,-54.4646
626.7,-54.532
626.8,-54.4588
626.9,-54.4561
627,-54.5197
627.1,-54.5796
627.2,-54.5309
627.3,-54.5986
627.4,-54.6069
627.5,-54.6096
627.6,-54.5605
627.7,-54.6413
627.8,-54.5355
627.9,-54.5626
628,-54.6183
628.1,-54.6033
628.2,-54.6834
628.3,-54.6521
628.4,-54.6972
628.5,-54.6674
628.6,-54.6681
628.7,-54.6834
628.8,-54.7055
628.9,-54.793
629,-54.6048
629.1,-54.6978
629.2,-54.7109
629.3,-54.7716
629.4,-54.6876
629.5,-54.7533
629.6,-54.7198
629.7,-54.7262
629.8,-54.7135
629.9,-54.7994
630,-54.6864
630.1,-54.7421
630.2,-54.7566
630.3,-54.7873
630.4,-54.7496
630.5,-54.8439
630.6,-54.8504
630.7,-54.8314
630.8,-54.8073
630.9,-54.858
631,-54.8384
631.1,-54.8299
631.2,-54.8156
631.3,-55.0187
631.4,-54.8577
631.5,-54.9276
631.6,-54.9498
631.7,-54.911
631.8,-54.8667
631.9,-54.8822
632,-54.8426
632.1,-54.9316
632.2,-54.968
632.3,-54.8893
632.4,-54.9708
632.5,-54.8578
632.6,-55.0031
632.7,-54.9838
632.8,-55.0332
632.9,-55.0143
633,-55.0567
633.1,-55.0419
633.2,-55.0331
633.3,-55.119
633.4,-55.0078
633.5,-55.0319
633.6,-55.0528
633.7,-55.0973
633.8,-55.0519
633.9,-55.0756
634,-55.07
634.1,-55.0838
634.2,-55.1926
634.3,-55.1566
634.4,-55.0978
634.5,-55.1036
634.6,-55.0498
634.7,-55.2201
634.8,-55.2153
634.9,-55.191
635,-55.1328
635.1,-55.2051
635.2,-55.2736
635.3,-55.2183
635.4,-55.2586
635.5,-55.1995
635.6,-55.2222
635.7,-55.2542
635.8,-55.2685
635.9,-55.2534
636,-55.2845
636.1,-55.2773
636.2,-55.3368
636.3,-55.3162
636.4,-55.2801
636.5,-55.3818
636.6,-55.3059
636.7,-55.3106
636.8,-55.3616
636.9,-55.3504
637,-55.342
637.1,-55.3001
637.2,-55.3836
637.3,-55.372
637.4,-55.4139
637.5,-55.4133
637.6,-55.4021
637.7,-55.3426
637.8,-55.3659
637.9,-55.4459
638,-55.381
638.1,-55.4173
638.2,-55.4382
638.3,-55.508
638.4,-55.4538
638.5,-55.4547
638.6,-55.4965
638.7,-55.4061
638.8,-55.4718
638.9,-55.4719
639,-55.3967
639.1,-55.5357
639.2,-55.5113
639.3,-55.509
639.4,-55.5279
639.5,-55.4879
639.6,-55.5151
639.7,-55.5715
639.8,-55.6625
639.9,-55.5463
640,-55.6288
640.1,-55.5128
640.2,-55.59
640.3,-55.6363
640.4,-55.6043
640.5,-55.6821
640.6,-55.6412
640.7,-55.7111
640.8,-55.6381
640.9,-55.6901
641,-55.6098
641.1,-55.5966
641.2,-55.6648
641.3,-55.6321
641.4,-55.6558
641.5,-55.6945
641.6,-55.7208
641.7,-55.7016
641.8,-55.7078
641.9,-55.7497
642,-55.6974
642.1,-55.7722
642.2,-55.7513
642.3,-55.7372
642.4,-55.8119
642.5,-55.7552
642.6,-55.8177
642.7,-55.8236
642.8,-55.8634
642.9,-55.7179
643,-55.7784
643.1,-55.753
643.2,-55.85
643.3,-55.8611
643.4,-55.859
643.5,-55.8816
643.6,-55.8501
643.7,-55.7479
643.8,-55.8328
643.9,-55.8923
644,-55.8764
644.1,-55.8843
644.2,-55.8942
644.3,-55.9031
644.4,-55.8207
644.5,-55.9024
644.6,-55.8698
644.7,-55.9473
644.8,-55.9494
644.9,-56.0198
645,-55.9351
645.1,-55.9511
645.2,-55.9102
645.3,-55.875
645.4,-56.1324
645.5,-56.0965
645.6,-55.9713
645.7,-55.9735
645.8,-55.9946
645.9,-56.0064
646,-55.9973
646.1,-56.13
646.2,-56.0057
646.3,-56.0358
646.4,-56.0146
646.5,-56.1966
646.6,-56.0883
646.7,-56.0352
646.8,-56.1073
646.9,-56.0387
647,-56.0579
647.1,-55.9995
647.2,-56.1529
647.3,-56.1394
647.4,-56.0774
647.5,-56.1465
647.6,-56.2139
647.7,-56.0893
647.8,-56.1682
647.9,-56.0964
648,-56.1454
648.1,-56.258
648.2,-56.1563
648.3,-56.166
648.4,-56.1352
648.5,-56.2573
648.6,-56.1658
648.7,-56.2148
648.8,-56.3396
648.9,-56.3387
649,-56.3446
649.1,-56.2053
649.2,-56.2307
649.3,-56.2535
649.4,-56.2942
649.5,-56.257
649.6,-56.2889
649.7,-56.2996
649.8,-56.412
649.9,-56.385
650,-56.2757
650.1,-56.45
650.2,-56.3294
650.3,-56.3939
650.4,-56.4464
650.5,-56.4235
650.6,-56.4192
650.7,-56.6726
650.8,-56.1794
650.9,-56.3307
651,-56.328
651.1,-56.5012
651.2,-56.395
651.3,-56.4552
651.4,-56.4477
651.5,-56.3561
651.6,-56.4129
651.7,-56.5044
651.8,-56.5003
651.9,-56.532
652,-56.4476
652.1,-56.4509
652.2,-56.5392
652.3,-56.5088
652.4,-56.3669
652.5,-56.4744
652.6,-56.4799
652.7,-56.491
652.8,-56.57
652.9,-56.5693
653,-56.504
653.1,-56.5603
653.2,-56.5291
653.3,-56.6515
653.4,-56.55
653.5,-56.5561
653.6,-56.5381
653.7,-56.5924
653.8,-56.6373
653.9,-56.6576
654,-56.501
654.1,-56.6191
654.2,-56.5289
654.3,-56.6432
654.4,-56.617
654.5,-56.6975
654.6,-56.6506
654.7,-56.6024
654.8,-56.5865
654.9,-56.609
655,-56.6827
655.1,-56.8006
655.2,-56.73
655.3,-56.6773
655.4,-56.6354
655.5,-56.8336
655.6,-56.7457
655.7,-56.6474
655.8,-56.7572
655.9,-56.6221
656,-56.7069
656.1,-56.7852
656.2,-56.7771
656.3,-56.8216
656.4,-56.7975
656.5,-56.847
656.6,-56.7619
656.7,-56.764
656.8,-56.7383
656.9,-56.9182
657,-56.8985
657.1,-56.868
657.2,-56.7927
657.3,-56.711
657.4,-56.8932
657.5,-56.7553
657.6,-56.9291
657.7,-56.8722
657.8,-57.0223
657.9,-56.8838
658,-56.8685
658.1,-56.9065
658.2,-56.8853
658.3,-56.8696
658.4,-57.007
658.5,-56.9119
658.6,-56.9476
658.7,-56.9369
658.8,-56.9007
658.9,-57.0547
659,-56.9757
659.1,-56.9628
659.2,-56.9978
659.3,-57.0161
659.4,-56.9762
659.5,-57.0345
659.6,-57.0007
659.7,-56.9974
659.8,-57.0652
659.9,-57.1021
660,-57.0447
660.1,-57.1812
660.2,-57.0642
660.3,-57.1014
660.4,-57.109
660.5,-57.0566
660.6,-57.0944
660.7,-57.0492
660.8,-57.0567
660.9,-57.1485
661,-56.9782
661.1,-57.0999
661.2,-57.028
661.3,-57.2164
661.4,-57.0734
661.5,-57.1369
661.6,-57.087
661.7,-57.1959
661.8,-57.1752
661.9,-57.1486
662,-57.0808
662.1,-57.1111
662.2,-57.3877
662.3,-57.1508
662.4,-57.2732
662.5,-57.2478
662.6,-57.2246
662.7,-57.1728
662.8,-57.2729
662.9,-57.313
663,-57.2211
663.1,-57.2447
663.2,-57.2945
663.3,-57.3053
663.4,-57.2105
663.5,-57.2374
663.6,-57.2473
663.7,-57.3317
663.8,-57.3092
663.9,-57.3515
664,-57.3918
664.1,-57.3885
664.2,-57.4477
664.3,-57.2225
664.4,-57.412
664.5,-57.2983
664.6,-57.3676
664.7,-57.3838
664.8,-57.3088
664.9,-57.3662
665,-57.4642
665.1,-57.4241
665.2,-57.5246
665.3,-57.4391
665.4,-57.5816
665.5,-57.3457
665.6,-57.3898
665.7,-57.4041
665.8,-57.4629
665.9,-57.4187
666,-57.4299
666.1,-57.3984
666.2,-57.4989
666.3,-57.3956
666.4,-57.4398
666.5,-57.4876
666.6,-57.444
666.7,-57.4395
666.8,-57.454
666.9,-57.5208
667,-57.6187
667.1,-57.6112
667.2,-57.4916
667.3,-57.6021
667.4,-57.5486
667.5,-57.5498
667.6,-57.6052
667.7,-57.6494
667.8,-57.5189
667.9,-57.6915
668,-57.6406
668.1,-57.7125
668.2,-57.5807
668.3,-57.5008
668.4,-57.5106
668.5,-57.6616
668.6,-57.6365
668.7,-57.6928
668.8,-57.6389
668.9,-57.716
669,-57.6453
669.1,-57.6277
669.2,-57.629
669.3,-57.5473
669.4,-57.742
669.5,-57.7048
669.6,-57.5883
669.7,-57.6016
669.8,-57.7275
669.9,-57.6729
670,-57.7857
670.1,-57.7303
670.2,-57.7511
670.3,-57.8164
670.4,-57.7098
670.5,-57.6998
670.6,-57.7343
670.7,-57.6775
670.8,-57.756
670.9,-57.8118
671,-57.9812
671.1,-57.7709
671.2,-57.8665
671.3,-57.8168
671.4,-57.857
671.5,-57.7326
671.6,-57.8857
671.7,-57.997
671.8,-57.9292
671.9,-57.9283
672,-57.8287
672.1,-57.8545
672.2,-57.7893
672.3,-57.9031
672.4,-58.032
672.5,-57.8743
672.6,-57.858
672.7,-57.9335
672.8,-58.053
672.9,-57.9081
673,-57.9347
673.1,-57.8904
673.2,-58.0244
673.3,-57.9636
673.4,-57.9579
673.5,-57.9434
673.6,-58.0402
673.7,-57.9317
673.8,-57.8915
673.9,-58.0968
674,-57.9567
674.1,-57.9235
674.2,-58.0187
674.3,-58.1089
674.4,-58.0985
674.5,-58.1258
674.6,-58.1043
674.7,-58.1285
674.8,-58.0194
674.9,-58.0134
675,-58.0542
675.1,-58.0215
675.2,-58.0224
675.3,-57.9514
675.4,-58.0071
675.5,-58.0883
675.6,-58.2433
675.7,-58.1246
675.8,-58.1876
675.9,-58.0082
676,-57.9772
676.1,-57.9945
676.2,-58.1255
676.3,-58.1296
676.4,-58.1164
676.5,-58.2377
676.6,-58.2008
676.7,-58.0474
676.8,-58.1972
676.9,-58.2376
677,-58.23
677.1,-58.2467
677.2,-58.1816
677.3,-58.19
677.4,-58.1269
677.5,-58.3017
677.6,-58.1603
677.7,-58.2843
677.8,-58.156
677.9,-58.2186
678,-58.2571
678.1,-58.2319
678.2,-58.2492
678.3,-58.2324
678.4,-58.411
678.5,-58.323
678.6,-58.3841
678.7,-58.2762
678.8,-58.3417
678.9,-58.142
679,-58.2757
679.1,-58.361
679.2,-58.2725
679.3,-58.318
679.4,-58.3854
679.5,-58.2886
679.6,-58.2853
679.7,-58.3982
679.8,-58.2896
679.9,-58.3102
680,-58.4199
680.1,-58.2383
680.2,-58.3557
680.3,-58.3907
680.4,-58.4549
680.5,-58.4454
680.6,-58.3391
680.7,-58.4087
680.8,-58.4276
680.9,-58.5753
681,-58.3322
681.1,-58.2686
681.2,-58.5081
681.3,-58.5393
681.4,-58.5172
681.5,-58.5094
681.6,-58.4564
681.7,-58.5067
681.8,-58.5444
681.9,-58.5133
682,-58.5896
682.1,-58.5778
682.2,-58.4841
682.3,-58.577
682.4,-58.5394
682.5,-58.4751
682.6,-58.5776
682.7,-58.59
682.8,-58.6339
682.9,-58.5416
683,-58.6582
683.1,-58.5994
683.2,-58.5621
683.3,-58.5701
683.4,-58.571
683.5,-58.5873
683.6,-58.5827
683.7,-58.4853
683.8,-58.7644
683.9,-58.5742
684,-58.581
684.1,-58.6672
684.2,-58.659
684.3,-58.7
684.4,-58.8221
684.5,-58.6216
684.6,-58.5777
684.7,-58.7374
684.8,-58.6675
684.9,-58.7255
685,-58.6928
685.1,-58.7101
685.2,-58.6274
685.3,-58.791
685.4,-58.8179
685.5,-58.6625
685.6,-58.5608
685.7,-58.7906
685.8,-58.7347
685.9,-58.7919
686,-58.7067
686.1,-58.7528
686.2,-58.8209
686.3,-58.8594
686.4,-58.8899
686.5,-58.9178
686.6,-58.782
686.7,-58.8948
686.8,-58.8118
686.9,-58.7628
687,-58.7993
687.1,-58.7369
687.2,-58.7292
687.3,-58.9007
687.4,-58.8345
687.5,-58.829
687.6,-58.913
687.7,-58.7553
687.8,-58.8909
687.9,-58.8143
688,-58.877
688.1,-58.9414
688.2,-58.9403
688.3,-59.0214
688.4,-58.923
688.5,-58.9092
688.6,-58.923
688.7,-58.9431
688.8,-58.9485
688.9,-58.951
689,-58.9632
689.1,-58.9987
689.2,-58.967
689.3,-58.9392
689.4,-58.9672
689.5,-58.9525
689.6,-59.0426
689.7,-58.9808
689.8,-59.0287
689.9,-59.1074
690,-59.0958
690.1,-59.1317
690.2,-58.8939
690.3,-59.0989
690.4,-58.9891
690.5,-59.0294
690.6,-59.0383
690.7,-59.0717
690.8,-59.0408
690.9,-59.1002
691,-59.0811
691.1,-59.07
691.2,-58.9899
691.3,-58.9675
691.4,-59.1467
691.5,-59.0719
691.6,-59.1089
691.7,-59.1037
691.8,-59.2522
691.9,-59.0714
692,-59.1796
692.1,-59.128
692.2,-59.1627
692.3,-59.2278
692.4,-59.1893
692.5,-59.2384
692.6,-59.2896
692.7,-59.23
692.8,-59.0448
692.9,-59.249
693,-59.0216
693.1,-59.2865
693.2,-59.149
693.3,-59.1934
693.4,-59.1459
693.5,-59.2131
693.6,-59.1747
693.7,-59.1571
693.8,-59.0718
693.9,-59.2878
694,-59.3679
694.1,-59.3785
694.2,-59.2741
694.3,-59.3265
694.4,-59.4331
694.5,-59.1802
694.6,-59.3039
694.7,-59.1162
694.8,-59.2765
694.9,-59.2874
695,-59.349
695.1,-59.2455
695.2,-59.3768
695.3,-59.4119
695.4,-59.2915
695.5,-59.3352
695.6,-59.2871
695.7,-59.4143
695.8,-59.3823
695.9,-59.2738
696,-59.5425
696.1,-59.3342
696.2,-59.393
696.3,-59.4666
696.4,-59.4071
696.5,-59.2855
696.6,-59.3945
696.7,-59.4067
696.8,-59.4581
696.9,-59.4624
697,-59.5407
697.1,-59.4695
697.2,-59.4081
697.3,-59.5897
697.4,-59.4312
697.5,-59.5185
697.6,-59.4567
697.7,-59.4354
697.8,-59.3642
697.9,-59.5813
698,-59.574
698.1,-59.6245
698.2,-59.5331
698.3,-59.5466
698.4,-59.472
698.5,-59.4205
698.6,-59.5543
698.7,-59.4013
698.8,-59.5796
698.9,-59.5674
699,-59.5965
699.1,-59.5149
699.2,-59.4774
699.3,-59.5668
699.4,-59.5851
699.5,-59.5914
699.6,-59.5973
699.7,-59.6992
699.8,-59.5985
699.9,-59.5035
700,-59.5812
700.1,-59.7068
700.2,-59.6183
700.3,-59.5873
700.4,-59.5732
700.5,-59.6306
700.6,-59.7448
700.7,-59.6412
700.8,-59.5964
700.9,-59.6429
701,-59.6956
701.1,-59.7056
701.2,-59.8501
701.3,-59.6599
701.4,-59.7162
701.5,-59.6802
701.6,-59.5066
701.7,-59.601
701.8,-59.618
701.9,-59.6952
702,-59.931
702.1,-59.7783
702.2,-59.7536
702.3,-59.7513
702.4,-59.7776
702.5,-59.7481
702.6,-59.7255
702.7,-59.6535
702.8,-59.8354
702.9,-59.7395
703,-59.7917
703.1,-59.8239
703.2,-59.7478
703.3,-59.7085
703.4,-59.7334
703.5,-59.8307
703.6,-59.7243
703.7,-59.83
703.8,-59.7933
703.9,-59.924
704,-59.8538
704.1,-60.0105
704.2,-59.842
704.3,-59.9876
704.4,-59.8687
704.5,-59.8136
704.6,-59.9256
704.7,-59.9825
704.8,-59.9846
704.9,-59.7686
705,-59.9885
705.1,-59.9183
705.2,-60.0799
705.3,-59.9049
705.4,-60.0018
705.5,-60.1962
705.6,-59.8978
705.7,-59.9778
705.8,-60.0367
705.9,-59.9524
706,-59.9081
706.1,-59.861
706.2,-59.9262
706.3,-60.0577
706.4,-60.0387
706.5,-59.9735
706.6,-59.9927
706.7,-59.9591
706.8,-60.0845
706.9,-59.9662
707,-59.9538
707.1,-60.0313
707.2,-59.9895
707.3,-59.9355
707.4,-60.0219
707.5,-60.1265
707.6,-59.9692
707.7,-60.1185
707.8,-60.0619
707.9,-60.0782
708,-59.8739
708.1,-60.053
708.2,-60.0933
708.3,-60.0997
708.4,-60.2704
708.5,-60.1982
708.6,-59.9618
708.7,-60.1158
708.8,-60.2559
708.9,-59.9978
709,-60.1456
709.1,-60.0566
709.2,-60.1199
709.3,-60.2775
709.4,-60.1243
709.5,-60.0612
709.6,-60.2592
709.7,-60.2488
709.8,-60.1997
709.9,-60.2944
710,-60.068
710.1,-60.2981
710.2,-60.3178
710.3,-60.2074
710.4,-60.3279
710.5,-60.1015
710.6,-60.2105
710.7,-60.2936
710.8,-60.326
710.9,-60.2616
711,-60.2787
711.1,-60.2914
711.2,-60.302
711.3,-60.357
711.4,-60.3475
711.5,-60.5173
711.6,-60.3751
711.7,-60.2439
711.8,-60.3597
711.9,-60.3357
712,-60.1829
712.1,-60.2092
712.2,-60.3449
712.3,-60.2856
712.4,-60.2832
712.5,-60.2089
712.6,-60.3657
712.7,-60.3441
712.8,-60.3883
712.9,-60.3412
713,-60.311
713.1,-60.3996
713.2,-60.3117
713.3,-60.3351
713.4,-60.4622
713.5,-60.3205
713.6,-60.4022
713.7,-60.5468
713.8,-60.6131
713.9,-60.3991
714,-60.4417
714.1,-60.4647
714.2,-60.7028
714.3,-60.5017
714.4,-60.5323
714.5,-60.5073
714.6,-60.3247
714.7,-60.5617
714.8,-60.5011
714.9,-60.4904
715,-60.4557
715.1,-60.4875
715.2,-60.4962
715.3,-60.5131
715.4,-60.5635
715.5,-60.3651
715.6,-60.7316
715.7,-60.4541
715.8,-60.5004
715.9,-60.448
716,-60.5389
716.1,-60.4446
716.2,-60.5049
716.3,-60.5874
716.4,-60.5724
716.5,-60.5661
716.6,-60.5631
716.7,-60.7021
716.8,-60.5433
716.9,-60.5975
717,-60.5904
717.1,-60.6618
717.2,-60.619
717.3,-60.5694
717.4,-60.4668
717.5,-60.4072
717.6,-60.7106
717.7,-60.5522
717.8,-60.6153
717.9,-60.6103
718,-60.8218
718.1,-60.7866
718.2,-60.5916
718.3,-60.7016
718.4,-60.6946
718.5,-60.6372
718.6,-60.7063
718.7,-60.6966
718.8,-60.8486
718.9,-60.7737
719,-60.8072
719.1,-60.8091
719.2,-60.6162
719.3,-60.8404
719.4,-60.8608
719.5,-60.7388
719.6,-60.7135
719.7,-60.8266
719.8,-60.7269
719.9,-60.6612
720,-60.8684
720.1,-60.7309
720.2,-60.8399
720.3,-60.6853
720.4,-60.7036
720.5,-60.7909
720.6,-60.8266
720.7,-60.8003
720.8,-60.9412
720.9,-60.9204
721,-60.7586
721.1,-60.8498
721.2,-60.8159
721.3,-60.9293
721.4,-60.9307
721.5,-60.691
721.6,-60.8205
721.7,-60.7772
721.8,-61.0746
721.9,-60.8743
722,-60.857
722.1,-60.9202
722.2,-60.779
722.3,-60.9243
722.4,-60.8313
722.5,-60.9329
722.6,-60.9338
722.7,-60.8788
722.8,-60.9455
722.9,-61.1239
723,-60.8605
723.1,-61.0666
723.2,-61.0119
723.3,-60.9211
723.4,-60.9964
723.5,-60.9693
723.6,-60.7752
723.7,-60.9931
723.8,-60.8567
723.9,-61.0143
724,-60.9446
724.1,-60.977
724.2,-61.0407
724.3,-60.9865
724.4,-61.0943
724.5,-60.9406
724.6,-61.1452
724.7,-61.13
724.8,-60.9109
724.9,-61.2698
725,-61.0953
725.1,-60.9956
725.2,-60.9352
725.3,-61.0737
725.4,-61.0585
725.5,-61.0926
725.6,-61.0622
725.7,-61.2428
725.8,-61.0555
725.9,-60.9103
726,-61.0983
726.1,-61.0502
726.2,-61.2199
726.3,-61.184
726.4,-61.0044
726.5,-61.2385
726.6,-61.0686
726.7,-61.218
726.8,-61.1468
726.9,-61.199
727,-61.0717
727.1,-61.2814
727.2,-61.0126
727.3,-61.1549
727.4,-61.2518
727.5,-61.1792
727.6,-61.1095
727.7,-61.1656
727.8,-61.1617
727.9,-61.056
728,-61.1692
728.1,-61.2447
728.2,-61.199
728.3,-61.08
728.4,-61.2181
728.5,-61.1933
728.6,-61.1757
728.7,-61.2822
728.8,-61.1675
728.9,-61.2469
729,-61.3538
729.1,-61.0716
729.2,-61.181
729.3,-61.1636
729.4,-61.1761
729.5,-61.3119
729.6,-61.1816
729.7,-61.3797
729.8,-61.3347
729.9,-61.333
730,-61.4212
730.1,-61.4141
730.2,-61.3437
730.3,-61.3501
730.4,-61.3933
730.5,-61.409
730.6,-61.3254
730.7,-61.5159
730.8,-61.3335
730.9,-61.3491
731,-61.4327
731.1,-61.4375
731.2,-61.5584
731.3,-61.4333
731.4,-61.442
731.5,-61.3667
731.6,-61.3443
731.7,-61.5255
731.8,-61.4732
731.9,-61.3667
732,-61.4481
732.1,-61.2685
732.2,-61.4473
732.3,-61.4021
732.4,-61.3184
732.5,-61.4838
732.6,-61.4704
732.7,-61.4802
732.8,-61.6786
732.9,-61.4977
733,-61.3829
733.1,-61.443
733.2,-61.4896
733.3,-61.5756
733.4,-61.4589
733.5,-61.4657
733.6,-61.5315
733.7,-61.4159
733.8,-61.5711
733.9,-61.6605
734,-61.5084
734.1,-61.667
734.2,-61.6653
734.3,-61.6091
734.4,-61.5615
734.5,-61.6654
734.6,-61.6366
734.7,-61.4577
734.8,-61.4395
734.9,-61.52
735,-61.6543
735.1,-61.5804
735.2,-61.6649
735.3,-61.6049
735.4,-61.6205
735.5,-61.7243
735.6,-61.7093
735.7,-61.6233
735.8,-61.5913
735.9,-61.8158
736,-61.6666
736.1,-61.6392
736.2,-61.6671
736.3,-61.6586
736.4,-61.7377
736.5,-61.8216
736.6,-61.7186
736.7,-61.5071
736.8,-61.5755
736.9,-61.5213
737,-61.7712
737.1,-61.7757
737.2,-61.7474
737.3,-61.8928
737.4,-61.6717
737.5,-61.5665
737.6,-61.7692
737.7,-61.854
737.8,-61.7827
737.9,-61.7451
738,-61.7956
738.1,-61.7779
738.2,-61.6823
738.3,-61.7794
738.4,-61.8774
738.5,-61.7131
738.6,-61.7918
738.7,-61.8567
738.8,-61.7336
738.9,-61.909
739,-61.8264
739.1,-61.785
739.2,-61.8626
739.3,-61.7686
739.4,-61.8615
739.5,-61.9881
739.6,-61.7635
739.7,-61.8755
739.8,-61.8586
739.9,-61.9585
740,-61.6799
740.1,-61.7742
740.2,-61.9577
740.3,-61.9439
740.4,-62.0049
740.5,-61.7971
740.6,-61.913
740.7,-61.8546
740.8,-61.9985
740.9,-62.0695
741,-61.855
741.1,-61.9477
741.2,-62.1623
741.3,-61.8542
741.4,-61.8819
741.5,-61.8699
741.6,-62.1917
741.7,-62.253
741.8,-61.9943
741.9,-62.0799
742,-62.1912
742.1,-62.0597
742.2,-62.1738
742.3,-62.1039
742.4,-62.1611
742.5,-61.9435
742.6,-61.9881
742.7,-61.8208
742.8,-61.8802
742.9,-62.0478
743,-61.9828
743.1,-62.2446
743.2,-61.9743
743.3,-61.994
743.4,-62.1515
743.5,-62.1275
743.6,-62.1203
743.7,-62.0325
743.8,-61.9755
743.9,-62.1229
744,-62.208
744.1,-61.9428
744.2,-62.169
744.3,-62.1038
744.4,-61.9694
744.5,-62.1213
744.6,-62.1687
744.7,-62.1342
744.8,-61.9437
744.9,-62.0601
745,-62.1784
745.1,-62.2328
745.2,-62.207
745.3,-62.0843
745.4,-62.3739
745.5,-62.1982
745.6,-62.2996
745.7,-62.25
745.8,-62.0774
745.9,-62.0196
746,-62.1275
746.1,-62.3245
746.2,-62.2078
746.3,-62.3167
746.4,-62.1546
746.5,-62.3572
746.6,-62.2994
746.7,-62.2555
746.8,-62.2906
746.9,-62.1853
747,-62.1348
747.1,-62.132
747.2,-62.4351
747.3,-62.3401
747.4,-62.114
747.5,-62.4138
747.6,-62.373
747.7,-62.3043
747.8,-62.4406
747.9,-62.3643
748,-62.3326
748.1,-62.3542
748.2,-62.2333
748.3,-62.3538
748.4,-62.141
748.5,-62.3077
748.6,-62.2795
748.7,-62.3222
748.8,-62.3857
748.9,-62.2321
749,-62.4116
749.1,-62.547
749.2,-62.2526
749.3,-62.2678
749.4,-62.4522
749.5,-62.3707
749.6,-62.3419
749.7,-62.2787
749.8,-62.3495
749.9,-62.4041
750,-62.5219
750.1,-62.3787
750.2,-62.346
750.3,-62.3223
750.4,-62.3972
750.5,-62.3869
750.6,-62.2745
750.7,-62.4428
750.8,-62.9516
750.9,-61.9212
751,-62.1607
751.1,-62.5476
751.2,-62.62
751.3,-62.6504
751.4,-62.326
751.5,-62.5672
751.6,-62.5502
751.7,-62.401
751.8,-62.5132
751.9,-62.4436
752,-62.6694
752.1,-62.6826
752.2,-62.4138
752.3,-62.4821
752.4,-62.5766
752.5,-62.4284
752.6,-62.651
752.7,-62.4912
752.8,-62.7866
752.9,-62.6557
753,-62.5325
753.1,-62.3434
753.2,-62.6265
753.3,-62.5632
753.4,-62.4789
753.5,-62.8182
753.6,-62.6624
753.7,-62.5565
753.8,-62.7779
753.9,-62.7239
754,-62.6267
754.1,-62.6491
754.2,-62.4494
754.3,-62.4626
754.4,-62.5858
754.5,-62.7889
754.6,-62.6871
754.7,-62.5767
754.8,-62.7104
754.9,-62.6585
755,-62.389
755.1,-62.7151
755.2,-62.7547
755.3,-62.6519
755.4,-62.8542
755.5,-62.7658
755.6,-62.6731
755.7,-62.8428
755.8,-62.6471
755.9,-62.6633
756,-62.6566
756.1,-62.5844
756.2,-62.937
756.3,-62.7578
756.4,-62.4749
756.5,-62.6499
756.6,-62.5976
756.7,-62.5862
756.8,-62.7433
756.9,-62.8824
757,-62.7682
757.1,-62.6934
757.2,-62.9788
757.3,-62.6887
757.4,-62.9526
757.5,-62.6995
757.6,-62.7689
757.7,-62.8675
757.8,-62.8023
757.9,-62.8195
758,-62.7955
758.1,-63.1021
758.2,-62.8752
758.3,-62.9345
758.4,-62.6626
758.5,-62.6435
758.6,-63.0186
758.7,-62.8653
758.8,-62.8706
758.9,-62.8658
759,-62.8562
759.1,-62.9365
759.2,-62.9844
759.3,-62.9517
759.4,-62.8741
759.5,-62.896
759.6,-63.0066
759.7,-63.1027
759.8,-62.9999
759.9,-62.8532
760,-63.0656
760.1,-62.7181
760.2,-63.0234
760.3,-62.7578
760.4,-62.8492
760.5,-63.0441
760.6,-62.8389
760.7,-62.7793
760.8,-63.1059
760.9,-62.8055
761,-63.1774
761.1,-62.9605
761.2,-63.0105
761.3,-62.8187
761.4,-63.241
761.5,-62.96
761.6,-63.0346
761.7,-62.9529
761.8,-63.1145
761.9,-63.2404
762,-62.8492
762.1,-63.1298
762.2,-63.0488
762.3,-63.0646
762.4,-63.2653
762.5,-63.4949
762.6,-63.1874
762.7,-62.9012
762.8,-63.1977
762.9,-62.9538
763,-63.3621
763.1,-63.0542
763.2,-63.139
763.3,-63.0592
763.4,-63.0953
763.5,-63.0558
763.6,-63.0784
763.7,-63.0956
763.8,-63.2435
763.9,-63.158
764,-63.0013
764.1,-63.2312
764.2,-63.2717
764.3,-63.185
764.4,-63.2418
764.5,-63.224
764.6,-63.2228
764.7,-63.2152
764.8,-63.2158
764.9,-63.104
765,-63.2075
765.1,-63.0236
765.2,-63.1997
765.3,-63.1567
765.4,-63.2156
765.5,-63.3271
765.6,-63.3949
765.7,-63.1809
765.8,-63.0403
765.9,-63.1723
766,-63.1387
766.1,-63.1293
766.2,-63.4073
766.3,-63.2209
766.4,-63.1717
766.5,-63.1071
766.6,-63.2752
766.7,-63.327
766.8,-63.4068
766.9,-63.3806
767,-63.3518
767.1,-63.3997
767.2,-63.4044
767.3,-63.4268
767.4,-63.2069
767.5,-63.205
767.6,-63.5814
767.7,-63.4029
767.8,-63.2343
767.9,-63.4514
768,-63.3639
768.1,-63.4777
768.2,-63.4083
768.3,-63.4617
768.4,-63.286
768.5,-63.4568
768.6,-63.5516
768.7,-63.4354
768.8,-63.3994
768.9,-63.456
769,-63.2898
769.1,-63.2655
769.2,-63.4601
769.3,-63.5278
769.4,-63.3346
769.5,-63.4836
769.6,-63.4218
769.7,-63.6127
769.8,-63.5182
769.9,-63.3828
770,-63.4152
770.1,-63.794
770.2,-63.5644
770.3,-63.4629
770.4,-63.8058
770.5,-63.6259
770.6,-63.4056
770.7,-63.4774
770.8,-63.5653
770.9,-63.5804
771,-63.4934
771.1,-63.583
771.2,-63.5561
771.3,-63.4962
771.4,-63.4563
771.5,-63.5663
771.6,-63.4351
771.7,-63.4372
771.8,-63.899
771.9,-63.4938
772,-63.7938
772.1,-63.5227
772.2,-63.6342
772.3,-63.601
772.4,-63.5228
772.5,-63.4197
772.6,-63.8272
772.7,-63.4054
772.8,-63.5886
772.9,-63.889
773,-63.5933
773.1,-63.5761
773.2,-63.6981
773.3,-63.6833
773.4,-63.595
773.5,-63.5111
773.6,-63.4963
773.7,-63.7116
773.8,-63.7017
773.9,-63.6316
774,-63.7835
774.1,-63.741
774.2,-63.5767
774.3,-63.4786
774.4,-63.7255
774.5,-63.8307
774.6,-63.6404
774.7,-63.8747
774.8,-63.5829
774.9,-63.657
775,-63.7062
775.1,-63.7175
775.2,-63.6267
775.3,-63.8253
775.4,-63.7388
775.5,-63.6509
775.6,-63.7027
775.7,-63.9394
775.8,-63.5574
775.9,-63.8156
776,-63.8991
776.1,-63.5526
776.2,-63.7714
776.3,-63.7627
776.4,-63.8178
776.5,-63.8246
776.6,-63.561
776.7,-63.5527
776.8,-63.8613
776.9,-63.7869
777,-63.7701
777.1,-63.8048
777.2,-63.7478
777.3,-63.7317
777.4,-63.9261
777.5,-63.9835
777.6,-63.2749
777.7,-63.7237
777.8,-63.9232
777.9,-63.9011
778,-64.0137
778.1,-63.9208
778.2,-63.6796
778.3,-63.8627
778.4,-63.783
778.5,-63.8664
778.6,-63.7233
778.7,-63.931
778.8,-63.8559
778.9,-63.9334
779,-63.9588
779.1,-64.009
779.2,-64.079
779.3,-64.0635
779.4,-63.7166
779.5,-63.801
779.6,-63.946
779.7,-63.9405
779.8,-64.1375
779.9,-64.0538
780,-64.0343
780.1,-63.4821
780.2,-64.0236
780.3,-63.9907
780.4,-63.8486
780.5,-63.9717
780.6,-64.0619
780.7,-64.2373
780.8,-63.9206
780.9,-64.0916
781,-64.0784
781.1,-63.9992
781.2,-63.998
781.3,-63.8857
781.4,-64.0601
781.5,-64.1947
781.6,-64.0725
781.7,-64.2545
781.8,-63.8412
781.9,-64.0359
782,-64.2525
782.1,-63.8848
782.2,-64.0253
782.3,-64.1649
782.4,-64.3173
782.5,-64.2236
782.6,-64.4216
782.7,-64.1949
782.8,-64.0377
782.9,-64.0712
783,-64.0365
783.1,-64.1048
783.2,-64.2047
783.3,-64.1514
783.4,-64.2513
783.5,-64.0066
783.6,-64.1879
783.7,-64.4543
783.8,-64.2937
783.9,-64.2857
784,-64.1375
784.1,-64.014
784.2,-64.2134
784.3,-64.1043
784.4,-64.1802
784.5,-64.3718
784.6,-64.3529
784.7,-64.4611
784.8,-64.4588
784.9,-64.383
785,-64.3295
785.1,-64.9591
785.2,-64.2007
785.3,-64.1793
785.4,-64.3704
785.5,-64.4389
785.6,-64.4281
785.7,-64.1551
785.8,-64.0816
785.9,-64.0671
786,-64.2045
786.1,-64.4337
786.2,-64.1481
786.3,-64.4071
786.4,-64.363
786.5,-64.2278
786.6,-64.4788
786.7,-64.4539
786.8,-64.3073
786.9,-64.1931
787,-64.3525
787.1,-64.4965
787.2,-64.2249
787.3,-64.3744
787.4,-64.323
787.5,-64.4865
787.6,-64.9693
787.7,-64.1318
787.8,-64.4229
787.9,-64.3051
788,-64.4283
788.1,-64.4345
788.2,-64.2936
788.3,-64.2055
788.4,-64.3445
788.5,-64.3559
788.6,-64.5503
788.7,-64.4637
788.8,-64.4397
788.9,-64.3503
789,-64.5464
789.1,-64.5438
789.2,-64.6058
789.3,-64.5278
789.4,-64.2192
789.5,-64.3331
789.6,-64.5268
789.7,-64.4669
789.8,-64.3627
789.9,-64.4177
790,-64.4281
790.1,-64.2044
790.2,-64.8784
790.3,-64.5675
790.4,-64.2192
790.5,-64.7494
790.6,-64.593
790.7,-64.4
790.8,-64.5004
790.9,-64.5524
791,-64.5589
791.1,-64.5523
791.2,-64.6906
791.3,-64.4395
791.4,-64.4956
791.5,-64.56
791.6,-64.4201
791.7,-64.2896
791.8,-64.2936
791.9,-64.417
792,-64.5294
792.1,-64.6562
792.2,-64.371
792.3,-64.505
792.4,-64.2139
792.5,-64.5098
792.6,-63.9839
792.7,-65.1402
792.8,-64.8742
792.9,-64.5483
793,-64.9562
793.1,-64.7109
793.2,-64.4591
793.3,-64.8762
793.4,-64.7455
793.5,-64.8207
793.6,-64.7103
793.7,-64.8282
793.8,-64.7941
793.9,-64.7932
794,-64.8308
794.1,-65.0616
794.2,-65.049
794.3,-64.7799
794.4,-64.7968
794.5,-64.7929
794.6,-64.6942
794.7,-64.7454
794.8,-64.8773
794.9,-64.8343
795,-64.7102
795.1,-64.1189
795.2,-64.9865
795.3,-65.0402
795.4,-64.8016
795.5,-64.978
795.6,-64.6982
795.7,-64.9117
795.8,-64.6252
795.9,-64.9074
796,-64.9184
796.1,-64.9311
796.2,-64.888
796.3,-65.1395
796.4,-64.9849
796.5,-65.0928
796.6,-64.8997
796.7,-64.668
796.8,-65.0991
796.9,-65.1665
797,-65.1349
797.1,-64.9753
797.2,-65.4253
797.3,-64.972
797.4,-65.0447
797.5,-65.5371
797.6,-65.4475
797.7,-64.2054
797.8,-64.8992
797.9,-64.7456
798,-65.0025
798.1,-65.1025
798.2,-65.0783
798.3,-65.2918
798.4,-64.8469
798.5,-65.5139
798.6,-65.0855
798.7,-65.3937
798.8,-65.1677
798.9,-65.4529
799,-65.4942
799.1,-65.1682
799.2,-65.2631
799.3,-65.2452
799.4,-65.6471
799.5,-65.5024
799.6,-65.4063
799.7,-65.2928
799.8,-65.7573
799.9,-65.8903
800,-66.0487
800.1,-67.9589
800.2,-62.1474
800.3,-64.5778
800.4,-64.7369
800.5,-65.1085
800.6,-65.0363
800.7,-64.8704
800.8,-65.3095
800.9,-65.4424
801,-65.3941
801.1,-65.2513
801.2,-65.7388
801.3,-65.4206
801.4,-65.8807
801.5,-65.6865
801.6,-65.8596
801.7,-65.9438
801.8,-65.9276
801.9,-66.0649
802,-66.3881
802.1,-66.7075
802.2,-67.0437
802.3,-66.9379
802.4,-66.567
802.5,-65.5554
802.6,-58.154
802.7,-48.2383
802.8,-58.138
802.9,-60.8268
803,-61.9632
803.1,-62.7384
803.2,-63.1777
803.3,-63.3729
803.4,-63.6358
803.5,-64.1637
803.6,-63.9313
803.7,-64.1449
803.8,-64.1989
803.9,-64.1129
804,-64.4929
804.1,-64.6252
804.2,-64.4606
804.3,-64.5625
804.4,-64.5382
804.5,-64.6118
804.6,-64.7449
804.7,-64.5984
804.8,-64.7372
804.9,-64.7305
805,-64.9111
805.1,-65.1316
805.2,-62.4437
805.3,-64.5381
805.4,-64.4881
805.5,-64.5052
805.6,-64.572
805.7,-64.982
805.8,-64.6928
805.9,-64.7864
806,-64.9237
806.1,-64.6202
806.2,-65.12
806.3,-64.9996
806.4,-64.8451
806.5,-64.8417
806.6,-64.9741
806.7,-64.9749
806.8,-64.8964
806.9,-65.0681
807,-64.9527
807.1,-65.0696
807.2,-65.0956
807.3,-65.3215
807.4,-65.3678
807.5,-65.0524
807.6,-65.2572
807.7,-62.8249
807.8,-64.8465
807.9,-64.8662
808,-65.0216
808.1,-65.1271
808.2,-64.8985
808.3,-64.9684
808.4,-65.1219
808.5,-65.1055
808.6,-65.2035
808.7,-65.0101
808.8,-65.0538
808.9,-64.9954
809,-65.2571
809.1,-65.1841
809.2,-65.6515
809.3,-65.41
809.4,-64.9942
809.5,-65.0961
809.6,-65.2068
809.7,-65.0482
809.8,-65.4355
809.9,-65.4072
810,-65.2162
810.1,-65.3558
810.2,-63.9508
810.3,-64.9784
810.4,-65.3544
810.5,-65.3095
810.6,-65.2654
810.7,-65.3122
810.8,-65.2109
810.9,-65.3092
811,-65.1517
811.1,-65.1884
811.2,-65.4191
811.3,-65.1297
811.4,-65.2649
811.5,-65.2463
811.6,-65.2772
811.7,-65.4265
811.8,-65.1962
811.9,-65.3923
812,-65.5625
812.1,-65.4036
812.2,-65.4895
812.3,-65.3037
812.4,-65.333
812.5,-65.2884
812.6,-65.5597
812.7,-65.8267
812.8,-65.3341
812.9,-65.4802
813,-65.3684
813.1,-65.225
813.2,-65.2955
813.3,-65.6872
813.4,-65.2154
813.5,-65.3324
813.6,-65.2107
813.7,-65.446
813.8,-65.5593
813.9,-65.5641
814,-65.4489
814.1,-65.605
814.2,-65.5817
814.3,-65.4587
814.4,-65.5227
814.5,-65.369
814.6,-65.6317
814.7,-65.8477
814.8,-65.5311
814.9,-65.5309
815,-65.4756
815.1,-65.5093
815.2,-66.7043
815.3,-65.4812
815.4,-65.6445
815.5,-65.4083
815.6,-65.4618
815.7,-65.5429
815.8,-65.3002
815.9,-65.5605
816,-65.4612
816.1,-65.5454
816.2,-65.4651
816.3,-65.4899
816.4,-65.5749
816.5,-65.6644
816.6,-65.5156
816.7,-65.5989
816.8,-65.8676
816.9,-65.6638
817,-65.7432
817.1,-65.3908
817.2,-65.6406
817.3,-65.8069
817.4,-65.7561
817.5,-65.8898
817.6,-65.6827
817.7,-66.4169
817.8,-65.7568
817.9,-65.5465
818,-65.1974
818.1,-65.5388
818.2,-65.5436
818.3,-65.7201
818.4,-65.6669
818.5,-65.6773
818.6,-65.6976
818.7,-65.5992
818.8,-65.5932
818.9,-65.7476
819,-65.8972
819.1,-65.6185
819.2,-65.7148
819.3,-65.5055
819.4,-65.5237
819.5,-65.806
819.6,-65.9418
819.7,-65.8402
819.8,-65.7402
819.9,-65.8643
820,-65.8415
820.1,-65.729
820.2,-65.4993
820.3,-65.97
820.4,-66.0009
820.5,-65.6986
820.6,-65.6963
820.7,-65.9119
820.8,-65.6541
820.9,-65.7996
821,-65.5545
821.1,-65.6454
821.2,-66.4011
821.3,-65.6868
821.4,-65.7555
821.5,-65.899
821.6,-65.7641
821.7,-65.6597
821.8,-65.8028
821.9,-65.8905
822,-65.9137
822.1,-65.815
822.2,-65.9474
822.3,-65.6921
822.4,-65.8475
822.5,-65.9156
822.6,-65.9364
822.7,-65.4284
822.8,-66.5222
822.9,-66.3011
823,-65.9149
823.1,-66.2001
823.2,-66.0723
823.3,-65.8896
823.4,-66.0153
823.5,-65.8606
823.6,-66.1853
823.7,-65.8033
823.8,-66.0086
823.9,-65.9988
824,-65.8188
824.1,-66.0162
824.2,-66.0943
824.3,-66.0643
824.4,-66.16
824.5,-66.0682
824.6,-65.9398
824.7,-65.8752
824.8,-66.1165
824.9,-65.7386
825,-65.8228
825.1,-65.8984
825.2,-65.74
825.3,-66.2992
825.4,-66.0427
825.5,-65.7941
825.6,-66.0876
825.7,-66.0425
825.8,-66.4553
825.9,-66.2658
826,-65.9745
826.1,-66.2104
826.2,-66.0444
826.3,-65.9316
826.4,-66.2564
826.5,-65.9888
826.6,-66.293
826.7,-66.1354
826.8,-65.9518
826.9,-66.2127
827,-65.9755
827.1,-66.1671
827.2,-66.125
827.3,-66.0753
827.4,-66.1816
827.5,-66.3199
827.6,-66.2054
827.7,-66.4399
827.8,-65.9483
827.9,-66.1569
828,-65.969
828.1,-66.2638
828.2,-66.1031
828.3,-66.2156
828.4,-66.2545
828.5,-66.1118
828.6,-66.3661
828.7,-66.295
828.8,-66.0751
828.9,-66.3971
829,-66.1904
829.1,-66.2772
829.2,-66.2173
829.3,-66.3155
829.4,-65.9426
829.5,-66.1741
829.6,-66.2383
829.7,-66.1281
829.8,-66.1316
829.9,-66.2898
830,-65.9656
830.1,-66.5656
830.2,-66.486
830.3,-65.6435
830.4,-66.083
830.5,-66.3647
830.6,-66.1878
830.7,-66.2304
830.8,-66.0766
830.9,-66.0029
831,-66.5353
831.1,-66.3773
831.2,-66.2464
831.3,-66.7056
831.4,-66.1737
831.5,-66.2095
831.6,-66.2668
831.7,-66.4633
831.8,-66.5079
831.9,-66.6364
832,-66.2842
832.1,-66.2597
832.2,-66.663
832.3,-66.3964
832.4,-66.2783
832.5,-66.2891
832.6,-66.6806
832.7,-66.6564
832.8,-66.15
832.9,-66.4493
833,-66.0377
833.1,-66.2606
833.2,-66.525
833.3,-66.1316
833.4,-66.3087
833.5,-66.4717
833.6,-66.4536
833.7,-66.2922
833.8,-66.0649
833.9,-66.2144
834,-66.6672
834.1,-66.5725
834.2,-66.2173
834.3,-66.361
834.4,-66.717
834.5,-66.4944
834.6,-66.4771
834.7,-66.5534
834.8,-66.4104
834.9,-66.5418
835,-66.339
835.1,-66.477
835.2,-66.6976
835.3,-66.4893
835.4,-66.5383
835.5,-66.7215
835.6,-66.5083
835.7,-66.2934
835.8,-66.3858
835.9,-66.57
836,-66.7458
836.1,-66.7526
836.2,-66.6979
836.3,-66.6154
836.4,-66.8573
836.5,-66.6797
836.6,-66.4947
836.7,-66.4141
836.8,-66.6041
836.9,-66.6366
837,-66.6986
837.1,-66.6026
837.2,-66.4407
837.3,-66.7343
837.4,-66.5386
837.5,-66.531
837.6,-66.8633
837.7,-66.6871
837.8,-67.2415
837.9,-66.6876
838,-66.7163
838.1,-66.6069
838.2,-66.6583
838.3,-66.7847
838.4,-66.6103
838.5,-66.8867
838.6,-66.8618
838.7,-66.7183
838.8,-66.3643
838.9,-66.6171
839,-66.731
839.1,-66.4681
839.2,-66.8107
839.3,-66.6783
839.4,-67.0758
839.5,-66.7501
839.6,-66.5105
839.7,-66.9522
839.8,-66.9245
839.9,-66.6336
840,-66.8377
840.1,-66.5639
840.2,-66.9496
840.3,-67.0069
840.4,-67.0061
840.5,-66.6514
840.6,-66.8133
840.7,-67.014
840.8,-66.9917
840.9,-66.9194
841,-66.8792
841.1,-66.6828
841.2,-66.9211
841.3,-66.8819
841.4,-67.0448
841.5,-66.7817
841.6,-66.7912
841.7,-66.8696
841.8,-66.5217
841.9,-66.8369
842,-66.8626
842.1,-66.8824
842.2,-66.5983
842.3,-67.0043
842.4,-66.9103
842.5,-67.0245
842.6,-67.3834
842.7,-66.8639
842.8,-66.7101
842.9,-66.8248
843,-66.6753
843.1,-67.0838
843.2,-67.0301
843.3,-66.8525
843.4,-66.7819
843.5,-66.9517
843.6,-66.7043
843.7,-67.0696
843.8,-66.8864
843.9,-66.917
844,-67.1939
844.1,-67.122
844.2,-67.1991
844.3,-66.9473
844.4,-66.9145
844.5,-66.4868
844.6,-66.7807
844.7,-66.8768
844.8,-67.2412
844.9,-66.7404
845,-67.0664
845.1,-67.0326
845.2,-66.9134
845.3,-66.8494
845.4,-66.9069
845.5,-67.1539
845.6,-66.9547
845.7,-66.7711
845.8,-67.2342
845.9,-67.4887
846,-66.9891
846.1,-67.0673
846.2,-66.894
846.3,-66.9111
846.4,-66.8211
846.5,-67.3626
846.6,-67.1806
846.7,-66.9267
846.8,-67.2357
846.9,-67.0841
847,-67.2866
847.1,-67.2027
847.2,-66.6958
847.3,-67.072
847.4,-67.309
847.5,-67.0609
847.6,-67.0223
847.7,-66.9604
847.8,-66.6909
847.9,-66.9129
848,-67.2286
848.1,-67.127
848.2,-67.0635
848.3,-67.3017
848.4,-67.3118
848.5,-66.6446
848.6,-67.1999
848.7,-67.4566
848.8,-67.406
848.9,-67.0106
849,-67.1579
849.1,-67.2969
849.2,-67.2992
849.3,-67.2502
849.4,-67.1702
849.5,-67.2026
849.6,-67.3692
849.7,-67.2674
849.8,-67.1045
849.9,-67.3307
850,-67.3206
850.1,-67.2752
850.2,-67.1203
850.3,-66.7323
850.4,-67.0124
850.5,-67.3361
850.6,-67.0679
850.7,-67.2249
850.8,-67.5579
850.9,-67.7059
851,-66.7823
851.1,-67.3351
851.2,-67.4853
851.3,-67.1564
851.4,-67.0764
851.5,-67.4974
851.6,-67.2354
851.7,-67.506
851.8,-67.5179
851.9,-67.2246
852,-67.5017
852.1,-67.3014
852.2,-67.5078
852.3,-67.3441
852.4,-67.4073
852.5,-67.5854
852.6,-67.7549
852.7,-67.573
852.8,-68.1586
852.9,-67.14
853,-67.3144
853.1,-67.3108
853.2,-67.2206
853.3,-67.2819
853.4,-67.3684
853.5,-67.7872
853.6,-67.5755
853.7,-67.2933
853.8,-67.284
853.9,-67.5646
854,-67.377
854.1,-67.5201
854.2,-67.2444
854.3,-67.302
854.4,-67.3145
854.5,-67.6346
854.6,-67.2778
854.7,-67.5485
854.8,-67.4096
854.9,-67.3481
855,-67.3677
855.1,-67.3944
855.2,-67.1803
855.3,-67.7159
855.4,-67.3658
855.5,-67.5501
855.6,-67.5894
855.7,-67.4979
855.8,-67.406
855.9,-67.399
856,-67.5262
856.1,-67.56
856.2,-67.2219
856.3,-67.6939
856.4,-67.4795
856.5,-67.8054
856.6,-67.7498
856.7,-67.6207
856.8,-67.3635
856.9,-67.7118
857,-67.7588
857.1,-67.6051
857.2,-67.7508
857.3,-67.8164
857.4,-67.7435
857.5,-67.4446
857.6,-67.6146
857.7,-67.5805
857.8,-67.58
857.9,-67.3087
858,-67.7956
858.1,-67.4936
858.2,-67.5749
858.3,-67.5182
858.4,-67.7261
858.5,-67.6661
858.6,-67.5285
858.7,-67.3987
858.8,-67.4386
858.9,-67.6735
859,-67.6341
859.1,-67.4432
859.2,-67.6311
859.3,-67.2657
859.4,-67.8398
859.5,-67.4645
859.6,-67.8492
859.7,-67.5286
859.8,-67.6487
859.9,-67.5523
860,-67.5582
860.1,-67.7163
860.2,-67.6675
860.3,-67.7597
860.4,-67.5744
860.5,-67.7941
860.6,-67.7142
860.7,-67.8898
860.8,-67.8513
860.9,-67.45
861,-67.8455
861.1,-67.8131
861.2,-67.825
861.3,-67.4319
861.4,-67.5967
861.5,-67.7172
861.6,-67.9741
861.7,-67.6943
861.8,-67.6252
861.9,-67.782
862,-67.5669
862.1,-67.7503
862.2,-67.8014
862.3,-67.7623
862.4,-68.004
862.5,-67.6249
862.6,-67.7476
862.7,-67.6337
862.8,-67.8457
862.9,-68.2092
863,-67.9084
863.1,-68.1882
863.2,-67.8342
863.3,-67.8082
863.4,-67.7702
863.5,-67.7593
863.6,-67.7385
863.7,-68.2073
863.8,-67.8139
863.9,-67.7698
864,-67.6913
864.1,-67.7997
864.2,-67.636
864.3,-67.7803
864.4,-68.003
864.5,-68.4397
864.6,-68.0442
864.7,-68.3493
864.8,-67.7443
864.9,-68.0119
865,-68.1254
865.1,-67.6766
865.2,-68.1231
865.3,-67.8163
865.4,-67.8478
865.5,-68.0132
865.6,-67.931
865.7,-67.7062
865.8,-67.9097
865.9,-67.8619
866,-68.2493
866.1,-67.7719
866.2,-68.2362
866.3,-67.9764
866.4,-67.8545
866.5,-68.4693
866.6,-68.1961
866.7,-68.0293
866.8,-67.8325
866.9,-68.2574
867,-67.6929
867.1,-67.7469
867.2,-68.0522
867.3,-68.0179
867.4,-68.1287
867.5,-68.3067
867.6,-68.0325
867.7,-68.1713
867.8,-68.2722
867.9,-67.6997
868,-68.0945
868.1,-68.0113
868.2,-68.3774
868.3,-67.8489
868.4,-68.2696
868.5,-68.0891
868.6,-68.2095
868.7,-68.1601
868.8,-67.8113
868.9,-67.9514
869,-68.2705
869.1,-67.84
869.2,-68.1642
869.3,-68.0655
869.4,-68.0799
869.5,-68.1389
869.6,-68.425
869.7,-68.2827
869.8,-68.1762
869.9,-67.9904
870,-68.3681
870.1,-68.1064
870.2,-68.3357
870.3,-68.1081
870.4,-68.0493
870.5,-68.3119
870.6,-68.1143
870.7,-68.3609
870.8,-68.382
870.9,-68.1727
871,-68.1842
871.1,-68.2017
871.2,-68.4224
871.3,-68.0462
871.4,-68.2517
871.5,-68.237
871.6,-68.2802
871.7,-67.9028
871.8,-67.9492
871.9,-68.2953
872,-68.2088
872.1,-68.134
872.2,-67.8397
872.3,-68.1235
872.4,-68.5115
872.5,-68.4597
872.6,-68.1344
872.7,-67.9308
872.8,-67.8936
872.9,-68.2821
873,-68.3003
873.1,-68.4285
873.2,-68.2176
873.3,-68.0059
873.4,-68.2041
873.5,-68.2441
873.6,-68.3463
873.7,-68.2061
873.8,-68.2292
873.9,-67.9777
874,-68.1377
874.1,-68.3973
874.2,-68.2553
874.3,-68.486
874.4,-67.7857
874.5,-68.6062
874.6,-68.3067
874.7,-68.1245
874.8,-68.2409
874.9,-68.6433
875,-68.4551
875.1,-68.105
875.2,-68.3669
875.3,-68.6619
875.4,-68.5853
875.5,-68.4146
875.6,-68.0973
875.7,-68.2616
875.8,-68.389
875.9,-68.1239
876,-68.4725
876.1,-68.1917
876.2,-68.0962
876.3,-68.7137
876.4,-68.4574
876.5,-68.5487
876.6,-68.3865
876.7,-68.4729
876.8,-68.2417
876.9,-68.6532
877,-68.6994
877.1,-68.2333
877.2,-68.6883
877.3,-68.6436
877.4,-68.4249
877.5,-68.5528
877.6,-68.0729
877.7,-68.1845
877.8,-68.2125
877.9,-68.8813
878,-68.0874
878.1,-68.3757
878.2,-68.7703
878.3,-68.5385
878.4,-68.9771
878.5,-68.7866
878.6,-68.2667
878.7,-68.661
878.8,-68.2019
878.9,-68.5453
879,-68.3284
879.1,-68.8638
879.2,-68.2129
879.3,-68.6563
879.4,-68.6136
879.5,-68.6834
879.6,-68.2008
879.7,-68.2999
879.8,-68.5772
879.9,-68.1887
880,-68.7277
880.1,-69.0452
880.2,-68.5443
880.3,-68.6881
880.4,-68.7775
880.5,-68.7503
880.6,-68.5347
880.7,-68.4798
880.8,-68.5786
880.9,-68.3191
881,-68.8233
881.1,-68.5339
881.2,-68.7679
881.3,-68.4671
881.4,-68.5633
881.5,-68.4118
881.6,-68.7753
881.7,-68.4501
881.8,-68.6361
881.9,-68.8886
882,-68.7982
882.1,-68.4773
882.2,-68.6624
882.3,-68.405
882.4,-68.8279
882.5,-68.5069
882.6,-68.6313
882.7,-68.532
882.8,-68.6456
882.9,-68.4799
883,-68.6965
883.1,-68.7277
883.2,-69.0281
883.3,-68.6487
883.4,-68.7123
883.5,-68.7201
883.6,-68.8014
883.7,-69.0212
883.8,-68.469
883.9,-69.0125
884,-68.8144
884.1,-68.485
884.2,-68.7703
884.3,-68.9411
884.4,-68.608
884.5,-68.8263
884.6,-68.976
884.7,-68.774
884.8,-68.8756
884.9,-68.8987
885,-68.9563
885.1,-68.5186
885.2,-68.6378
885.3,-68.7137
885.4,-68.4906
885.5,-69.2362
885.6,-68.7649
885.7,-69.0171
885.8,-68.8701
885.9,-68.6662
886,-69.4119
886.1,-68.9075
886.2,-69.0337
886.3,-68.6653
886.4,-68.793
886.5,-68.4496
886.6,-68.9392
886.7,-68.6308
886.8,-68.3187
886.9,-68.4519
887,-68.6512
887.1,-68.8025
887.2,-68.9147
887.3,-69.1438
887.4,-68.7262
887.5,-68.764
887.6,-68.9046
887.7,-68.6993
887.8,-68.6287
887.9,-68.8871
888,-69.1109
888.1,-68.9649
888.2,-68.7728
888.3,-69.2501
888.4,-68.8983
888.5,-69.062
888.6,-68.713
888.7,-68.6268
888.8,-69.0656
888.9,-69.0623
889,-68.7635
889.1,-68.9723
889.2,-69.043
889.3,-69.1508
889.4,-69.0571
889.5,-68.773
889.6,-69.2324
889.7,-68.6361
889.8,-69.0935
889.9,-69.0352
890,-68.6018
890.1,-68.8993
890.2,-68.9003
890.3,-68.8629
890.4,-69.2155
890.5,-68.5423
890.6,-68.9026
890.7,-68.8101
890.8,-68.6906
890.9,-68.931
891,-69.3011
891.1,-69.1247
891.2,-68.7342
891.3,-68.9939
891.4,-68.8515
891.5,-68.8333
891.6,-68.939
891.7,-68.8566
891.8,-69.0384
891.9,-68.5949
892,-68.8723
892.1,-69.1559
892.2,-68.7562
892.3,-69.2677
892.4,-68.9557
892.5,-69.227
892.6,-69.5005
892.7,-69.2215
892.8,-69.384
892.9,-69.4202
893,-68.6398
893.1,-68.8784
893.2,-69.0804
893.3,-68.8754
893.4,-69.1593
893.5,-68.9506
893.6,-68.524
893.7,-68.9306
893.8,-69.0435
893.9,-69.3912
894,-69.293
894.1,-68.8895
894.2,-69.0765
894.3,-69.2193
894.4,-69.2075
894.5,-69.5129
894.6,-69.2495
894.7,-68.992
894.8,-69.0633
894.9,-68.7623
895,-69.0856
895.1,-68.8943
895.2,-69.2158
895.3,-69.3332
895.4,-69.0744
895.5,-69.2033
895.6,-69.3323
895.7,-69.3654
895.8,-69.659
895.9,-69.2743
896,-69.1702
896.1,-68.9953
896.2,-69.2419
896.3,-69.2069
896.4,-69.0271
896.5,-69.3129
896.6,-68.942
896.7,-69.4034
896.8,-69.1742
896.9,-69.728
897,-69.0867
897.1,-69.4593
897.2,-69.2639
897.3,-69.4007
897.4,-69.2028
897.5,-69.3726
897.6,-69.3521
897.7,-69.4261
897.8,-69.4651
897.9,-69.1227
898,-69.8229
898.1,-69.0194
898.2,-68.9526
898.3,-69.1193
898.4,-69.0986
898.5,-69.2027
898.6,-69.3867
898.7,-69.096
898.8,-69.6083
898.9,-69.2885
899,-69.5619
899.1,-69.1988
899.2,-69.1791
899.3,-69.5331
899.4,-69.4569
899.5,-69.1462
899.6,-69.3726
899.7,-69.4044
899.8,-69.4474
899.9,-69.6267
900,-69.5808
900.1,-69.7594
900.2,-69.8825
900.3,-69.7788
900.4,-69.043
900.5,-69.8079
900.6,-69.2462
900.7,-69.7128
900.8,-69.3666
900.9,-69.57
901,-69.363
901.1,-69.7455
901.2,-69.2302
901.3,-69.3604
901.4,-69.1457
901.5,-69.4139
901.6,-69.3676
901.7,-69.4522
901.8,-69.3888
901.9,-69.0214
902,-69.2251
902.1,-69.32
902.2,-70.1815
902.3,-69.8027
902.4,-69.156
902.5,-69.2578
902.6,-69.6285
902.7,-69.7916
902.8,-69.1991
902.9,-69.5902
903,-69.6467
903.1,-69.1912
903.2,-69.5135
903.3,-69.3784
903.4,-69.4372
903.5,-69.7787
903.6,-69.828
903.7,-69.2238
903.8,-69.6292
903.9,-69.4892
904,-69.4411
904.1,-69.4511
904.2,-69.867
904.3,-69.3429
904.4,-69.7206
904.5,-69.592
904.6,-69.3671
904.7,-69.4443
904.8,-69.0484
904.9,-69.678
905,-69.8519
905.1,-70.182
905.2,-69.614
905.3,-69.4875
905.4,-69.5535
905.5,-69.5624
905.6,-69.5622
905.7,-69.6727
905.8,-69.945
905.9,-69.726
906,-69.4905
906.1,-69.9035
906.2,-69.5529
906.3,-69.4768
906.4,-69.6789
906.5,-69.8938
906.6,-69.7088
906.7,-69.7639
906.8,-69.4425
906.9,-69.2991
907,-69.3361
907.1,-69.5701
907.2,-69.818
907.3,-69.686
907.4,-69.503
907.5,-69.5283
907.6,-69.6719
907.7,-69.6445
907.8,-69.6472
907.9,-69.9412
908,-69.3011
908.1,-69.9717
908.2,-69.8381
908.3,-69.7389
908.4,-69.6724
908.5,-69.4859
908.6,-69.8839
908.7,-69.477
908.8,-70.139
908.9,-69.8609
909,-69.8574
909.1,-69.4046
909.2,-69.6882
909.3,-69.7316
909.4,-69.4933
909.5,-69.3338
909.6,-69.9821
909.7,-70.2236
909.8,-70.299
909.9,-69.4082
910,-69.4797
910.1,-69.6547
910.2,-69.8007
910.3,-69.6486
910.4,-69.8593
910.5,-70.1172
910.6,-69.5938
910.7,-69.9246
910.8,-69.9152
910.9,-69.776
911,-70.1992
911.1,-69.8842
911.2,-69.8466
911.3,-69.6226
911.4,-69.9052
911.5,-69.5641
911.6,-70.2188
911.7,-69.7967
911.8,-70.081
911.9,-69.8179
912,-69.8386
912.1,-69.7381
912.2,-69.8603
912.3,-69.9828
912.4,-69.7822
912.5,-69.9812
912.6,-70.2572
912.7,-70.1899
912.8,-70.1561
912.9,-70.0142
913,-69.9755
913.1,-69.8952
913.2,-69.5332
913.3,-69.9057
913.4,-70.0178
913.5,-70.3344
913.6,-70.0404
913.7,-70.1116
913.8,-69.8981
913.9,-69.9854
914,-69.6927
914.1,-70.2128
914.2,-69.9893
914.3,-69.9107
914.4,-69.7587
914.5,-69.6626
914.6,-70.1629
914.7,-70.2356
914.8,-70.0233
914.9,-70.0357
915,-69.9622
915.1,-69.7169
915.2,-70.12
915.3,-69.8357
915.4,-69.9212
915.5,-70.2679
915.6,-69.4248
915.7,-69.9737
915.8,-69.7824
915.9,-70.0043
916,-69.8118
916.1,-69.9032
916.2,-69.9113
916.3,-69.903
916.4,-70.2447
916.5,-69.8025
916.6,-70.4237
916.7,-70.2988
916.8,-69.7971
916.9,-69.9678
917,-70.2001
917.1,-69.6083
917.2,-69.8743
917.3,-70.5143
917.4,-70.0692
917.5,-70.026
917.6,-70.1844
917.7,-69.6737
917.8,-69.8963
917.9,-69.9667
918,-70.1154
918.1,-69.9785
918.2,-70.1547
918.3,-69.5225
918.4,-69.8409
918.5,-69.6872
918.6,-70.232
918.7,-70.2549
918.8,-69.9117
918.9,-70.5685
919,-69.7285
919.1,-70.4314
919.2,-69.9022
919.3,-70.0682
919.4,-70.192
919.5,-70.5011
919.6,-70.4811
919.7,-69.9515
919.8,-70.2489
919.9,-69.8086
920,-70.5548
920.1,-70.2982
920.2,-70.4534
920.3,-70.0271
920.4,-70.0561
920.5,-70.4941
920.6,-70.4465
920.7,-70.2638
920.8,-70.1451
920.9,-70.3488
921,-69.8061
921.1,-70.1043
921.2,-69.6374
921.3,-70.1995
921.4,-70.2568
921.5,-69.7974
921.6,-70.0977
921.7,-70.0686
921.8,-70.3586
921.9,-70.2534
922,-69.7424
922.1,-69.9396
922.2,-70.1384
922.3,-70.4573
922.4,-70.1858
922.5,-70.4454
922.6,-70.2565
922.7,-70.2589
922.8,-70.1904
922.9,-70.3874
923,-70.4368
923.1,-70.4807
923.2,-70.0973
923.3,-70.4981
923.4,-70.4063
923.5,-70.3316
923.6,-70.1962
923.7,-70.4534
923.8,-70.7145
923.9,-70.2972
924,-70.0924
924.1,-70.2945
924.2,-70.2655
924.3,-70.619
924.4,-69.9403
924.5,-70.3929
924.6,-70.6021
924.7,-70.1259
924.8,-70.3221
924.9,-70.4324
925,-70.3065
925.1,-70.4809
925.2,-70.4082
925.3,-70.0965
925.4,-70.1368
925.5,-70.2764
925.6,-70.2668
925.7,-70.5697
925.8,-70.6473
925.9,-70.4832
926,-70.7846
926.1,-70.2954
926.2,-70.3716
926.3,-69.7178
926.4,-69.728
926.5,-70.5872
926.6,-70.5528
926.7,-70.5782
926.8,-70.2592
926.9,-69.9211
927,-70.1555
927.1,-70.0109
927.2,-70.5725
927.3,-70.6199
927.4,-70.5248
927.5,-70.9637
927.6,-70.1727
927.7,-70.2074
927.8,-70.1456
927.9,-70.304
928,-70.6433
928.1,-70.3853
928.2,-70.5273
928.3,-70.6989
928.4,-70.7597
928.5,-70.2341
928.6,-70.2565
928.7,-70.3031
928.8,-70.2921
928.9,-70.4649
929,-70.3354
929.1,-70.8965
929.2,-70.559
929.3,-70.4727
929.4,-70.5177
929.5,-70.811
929.6,-70.4054
929.7,-70.8907
929.8,-70.7888
929.9,-70.0148
930,-70.7745
930.1,-70.5337
930.2,-70.739
930.3,-70.2703
930.4,-70.1234
930.5,-70.9731
930.6,-70.0854
930.7,-70.0191
930.8,-70.4654
930.9,-70.8752
931,-70.5417
931.1,-70.5107
931.2,-70.2148
931.3,-69.9376
931.4,-70.3111
931.5,-70.1656
931.6,-70.6128
931.7,-70.4719
931.8,-71.1447
931.9,-70.7184
932,-70.6275
932.1,-70.6192
932.2,-70.9162
932.3,-70.444
932.4,-70.518
932.5,-70.62
932.6,-70.6799
932.7,-70.4016
932.8,-70.5558
932.9,-70.6208
933,-70.4743
933.1,-70.4781
933.2,-70.8873
933.3,-70.2699
933.4,-70.6705
933.5,-70.4824
933.6,-70.4225
933.7,-70.3262
933.8,-70.4949
933.9,-70.2022
934,-70.3494
934.1,-70.1909
934.2,-70.9307
934.3,-70.7277
934.4,-70.3672
934.5,-70.9404
934.6,-70.4606
934.7,-70.2701
934.8,-70.3168
934.9,-70.7018
935,-70.6304
935.1,-70.1251
935.2,-70.3963
935.3,-70.46
935.4,-70.6228
935.5,-70.2675
935.6,-70.4767
935.7,-70.4961
935.8,-70.3084
935.9,-70.8323
936,-70.6034
936.1,-70.864
936.2,-71.0104
936.3,-70.6173
936.4,-70.7609
936.5,-70.7139
936.6,-70.489
936.7,-70.8083
936.8,-70.9295
936.9,-70.9861
937,-70.6949
937.1,-70.8405
937.2,-70.8504
937.3,-70.6921
937.4,-70.632
937.5,-70.3162
937.6,-71.001
937.7,-70.1579
937.8,-70.4225
937.9,-70.5945
938,-70.7234
938.1,-70.959
938.2,-70.5824
938.3,-70.6387
938.4,-70.8473
938.5,-70.6773
938.6,-70.6958
938.7,-70.7239
938.8,-70.7774
938.9,-70.9259
939,-70.3386
939.1,-70.4893
939.2,-70.5589
939.3,-71.0465
939.4,-70.5296
939.5,-70.4461
939.6,-70.6649
939.7,-70.5578
939.8,-70.3426
939.9,-70.9577
940,-70.8861
940.1,-70.3256
940.2,-70.3806
940.3,-70.8904
940.4,-70.9808
940.5,-70.756
940.6,-71.1601
940.7,-70.3722
940.8,-70.6434
940.9,-70.7031
941,-71.0045
941.1,-70.8354
941.2,-70.5914
941.3,-70.8633
941.4,-70.7536
941.5,-70.1684
941.6,-70.4137
941.7,-70.7966
941.8,-70.5117
941.9,-70.7801
942,-70.9388
942.1,-70.8124
942.2,-70.8768
942.3,-71.3216
942.4,-71.0485
942.5,-70.8748
942.6,-70.7041
942.7,-70.7793
942.8,-70.8766
942.9,-70.8617
943,-70.9944
943.1,-71.1799
943.2,-71.1496
943.3,-71.2074
943.4,-71.2439
943.5,-70.5242
943.6,-70.8995
943.7,-70.5957
943.8,-70.8002
943.9,-71.1643
944,-71.1415
944.1,-71.3155
944.2,-70.2855
944.3,-70.8421
944.4,-70.6806
944.5,-70.3803
944.6,-70.2243
944.7,-70.6773
944.8,-70.7588
944.9,-71.1097
945,-70.9689
945.1,-71.0149
945.2,-70.6882
945.3,-70.7417
945.4,-70.7977
945.5,-70.5022
945.6,-70.3479
945.7,-71.4741
945.8,-71.1233
945.9,-70.909
946,-70.611
946.1,-71.1848
946.2,-71.0384
946.3,-71.2457
946.4,-70.9668
946.5,-71.0203
946.6,-71.0712
946.7,-70.7314
946.8,-71.2822
946.9,-70.8661
947,-71.2329
947.1,-71.1982
947.2,-70.4907
947.3,-71.2411
947.4,-71.0573
947.5,-70.7813
947.6,-70.763
947.7,-70.9785
947.8,-71.1115
947.9,-70.4826
948,-70.746
948.1,-71.2382
948.2,-71.3864
948.3,-70.9105
948.4,-71.0919
948.5,-71.4959
948.6,-70.8851
948.7,-71.5386
948.8,-71.1023
948.9,-71.1237
949,-71.1161
949.1,-70.7001
949.2,-70.9712
949.3,-70.9839
949.4,-70.9128
949.5,-71.1998
949.6,-71.3798
949.7,-71.0964
949.8,-71.324
949.9,-70.6222
950,-70.7214
950.1,-70.9741
950.2,-70.9121
950.3,-71.3699
950.4,-70.8699
950.5,-70.8902
950.6,-71.3419
950.7,-70.9263
950.8,-71.0301
950.9,-70.8188
951,-71.6678
951.1,-70.9634
951.2,-71.1706
951.3,-71.1937
951.4,-71.0033
951.5,-70.8512
951.6,-71.9687
951.7,-71.4964
951.8,-71.233
951.9,-71.4132
952,-71.1859
952.1,-71.3816
952.2,-70.7778
952.3,-70.918
952.4,-71.3754
952.5,-70.9641
952.6,-70.9758
952.7,-71.44
952.8,-70.8947
952.9,-71.1262
953,-71.1662
953.1,-71.4787
953.2,-70.6656
953.3,-70.7382
953.4,-71.4349
953.5,-71.1307
953.6,-71.3157
953.7,-70.8344
953.8,-71.0889
953.9,-70.844
954,-71.1741
954.1,-70.9019
954.2,-70.9908
954.3,-71.1159
954.4,-71.3899
954.5,-71.1646
954.6,-71.2852
954.7,-71.3476
954.8,-71.055
954.9,-71.4114
955,-71.4078
955.1,-71.0789
955.2,-70.8976
955.3,-70.9862
955.4,-70.9795
955.5,-71.1003
955.6,-71.5148
955.7,-70.9483
955.8,-70.8458
955.9,-70.8764
956,-70.7892
956.1,-70.7484
956.2,-70.8592
956.3,-71.0394
956.4,-70.9933
956.5,-71.5069
956.6,-71.0844
956.7,-70.9612
956.8,-71.4202
956.9,-71.1734
957,-71.4738
957.1,-71.3912
957.2,-71.1809
957.3,-71.0948
957.4,-71.6919
957.5,-71.2494
957.6,-70.7893
957.7,-71.2322
957.8,-71.133
957.9,-71.1651
958,-70.9924
958.1,-71.4424
958.2,-71.4655
958.3,-70.8552
958.4,-71.3243
958.5,-71.4026
958.6,-71.285
958.7,-71.431
958.8,-70.7269
958.9,-71.2342
959,-71.2864
959.1,-70.9634
959.2,-71.59
959.3,-71.4683
959.4,-71.4764
959.5,-71.3712
959.6,-70.8299
959.7,-71.1855
959.8,-71.2472
959.9,-71.183
960,-71.527
960.1,-71.2284
960.2,-71.0771
960.3,-71.4158
960.4,-70.9794
960.5,-71.4233
960.6,-71.6904
960.7,-71.8819
960.8,-70.9665
960.9,-71.1806
961,-71.1082
961.1,-70.7546
961.2,-71.2473
961.3,-71.0714
961.4,-71.6758
961.5,-71.5843
961.6,-71.254
961.7,-70.9764
961.8,-71.1695
961.9,-71.0516
962,-71.149
962.1,-71.2195
962.2,-71.288
962.3,-71.4535
962.4,-71.126
962.5,-70.8321
962.6,-71.4436
962.7,-71.2573
962.8,-71.8161
962.9,-71.1725
963,-71.1554
963.1,-71.2399
963.2,-71.578
963.3,-71.2839
963.4,-71.3087
963.5,-71.1281
963.6,-71.3329
963.7,-71.249
963.8,-71.6576
963.9,-71.7315
964,-71.3634
964.1,-71.0742
964.2,-71.6493
964.3,-71.6258
964.4,-71.3421
964.5,-71.7052
964.6,-71.8933
964.7,-71.3281
964.8,-71.594
964.9,-71.6029
965,-71.1221
965.1,-71.5843
965.2,-71.7451
965.3,-71.4604
965.4,-71.3185
965.5,-71.3483
965.6,-71.2842
965.7,-70.7944
965.8,-71.6293
965.9,-71.2073
966,-71.7263
966.1,-71.1268
966.2,-71.383
966.3,-71.574
966.4,-71.1832
966.5,-71.3861
966.6,-71.2853
966.7,-71.5011
966.8,-71.7454
966.9,-71.5102
967,-72.2249
967.1,-71.3886
967.2,-71.3817
967.3,-71.7418
967.4,-71.1395
967.5,-71.588
967.6,-71.8028
967.7,-71.6923
967.8,-71.7653
967.9,-71.3014
968,-71.2041
968.1,-71.1301
968.2,-71.2421
968.3,-71.456
968.4,-71.4454
968.5,-71.3653
968.6,-71.7691
968.7,-71.3619
968.8,-71.7201
968.9,-71.5046
969,-71.4872
969.1,-71.9696
969.2,-71.5739
969.3,-71.5772
969.4,-71.7947
969.5,-71.3859
969.6,-71.8128
969.7,-71.0333
969.8,-71.3468
969.9,-71.4449
970,-71.5209
970.1,-71.5448
970.2,-71.2111
970.3,-71.2457
970.4,-71.5182
970.5,-71.5473
970.6,-71.272
970.7,-70.7949
970.8,-71.7971
970.9,-71.4458
971,-71.5176
971.1,-71.3879
971.2,-71.0808
971.3,-71.3893
971.4,-71.6397
971.5,-71.9341
971.6,-71.8169
971.7,-71.6172
971.8,-71.2875
971.9,-71.2321
972,-71.7486
972.1,-71.1832
972.2,-71.6711
972.3,-71.2221
972.4,-71.7994
972.5,-71.5702
972.6,-71.6545
972.7,-71.6266
972.8,-71.1701
972.9,-71.5575
973,-71.6677
973.1,-71.9919
973.2,-71.6984
973.3,-71.3815
973.4,-71.9562
973.5,-71.374
973.6,-71.7955
973.7,-71.3139
973.8,-71.3466
973.9,-71.2539
974,-71.1723
974.1,-71.2358
974.2,-71.515
974.3,-71.1959
974.4,-71.7664
974.5,-71.0851
974.6,-72.2328
974.7,-71.4607
974.8,-71.6813
974.9,-71.609
975,-71.8028
975.1,-71.9635
975.2,-70.9212
975.3,-71.4407
975.4,-71.775
975.5,-71.2758
975.6,-72.0574
975.7,-72.0297
975.8,-70.9306
975.9,-71.57
976,-71.5121
976.1,-71.5244
976.2,-71.4631
976.3,-71.3802
976.4,-71.4237
976.5,-71.5273
976.6,-71.218
976.7,-71.5784
976.8,-71.752
976.9,-71.7
977,-71.244
977.1,-71.4301
977.2,-71.6134
977.3,-71.8439
977.4,-71.2613
977.5,-71.705
977.6,-71.3532
977.7,-71.1185
977.8,-71.5727
977.9,-71.2044
978,-71.5701
978.1,-71.6594
978.2,-71.9665
978.3,-70.7781
978.4,-71.2469
978.5,-71.5058
978.6,-71.523
978.7,-71.5931
978.8,-71.7352
978.9,-71.4139
979,-71.8696
979.1,-71.5528
979.2,-71.0067
979.3,-71.3103
979.4,-71.9805
979.5,-71.4689
979.6,-71.3355
979.7,-71.6572
979.8,-71.2474
979.9,-71.4968
980,-71.3885
980.1,-71.5815
980.2,-71.6388
980.3,-71.3921
980.4,-71.8615
980.5,-71.3542
980.6,-71.684
980.7,-71.6828
980.8,-71.8393
980.9,-70.9662
981,-71.3197
981.1,-71.6049
981.2,-71.6464
981.3,-71.8682
981.4,-71.9765
981.5,-71.5237
981.6,-72.0211
981.7,-71.7711
981.8,-72.1746
981.9,-71.4441
982,-71.723
982.1,-71.9206
982.2,-71.709
982.3,-71.862
982.4,-71.2204
982.5,-71.6979
982.6,-71.5496
982.7,-71.8288
982.8,-71.7306
982.9,-72.1343
983,-71.6119
983.1,-71.7431
983.2,-71.1849
983.3,-72.642
983.4,-71.9897
983.5,-71.7218
983.6,-71.5776
983.7,-71.2318
983.8,-71.0318
983.9,-71.4304
984,-71.6793
984.1,-72.2765
984.2,-71.3671
984.3,-71.6599
984.4,-71.8223
984.5,-71.4213
984.6,-71.7628
984.7,-71.4777
984.8,-71.3791
984.9,-71.597
985,-71.4319
985.1,-71.2309
985.2,-71.3613
985.3,-71.7479
985.4,-71.859
985.5,-71.1682
985.6,-70.9475
985.7,-71.1087
985.8,-72.5979
985.9,-71.1564
986,-71.6953
986.1,-71.7531
986.2,-71.4254
986.3,-71.95
986.4,-71.4874
986.5,-71.5927
986.6,-72.0779
986.7,-71.3093
986.8,-71.1893
986.9,-72.1077
987,-71.4702
987.1,-71.9557
987.2,-71.7253
987.3,-71.3278
987.4,-71.3788
987.5,-71.8969
987.6,-71.9963
987.7,-71.5515
987.8,-71.9695
987.9,-71.7751
988,-71.4189
988.1,-71.1485
988.2,-71.2938
988.3,-70.9215
988.4,-71.348
988.5,-71.2052
988.6,-71.8716
988.7,-71.5968
988.8,-71.8039
988.9,-71.2707
989,-71.303
989.1,-70.6403
989.2,-71.5526
989.3,-71.6276
989.4,-71.2314
989.5,-71.5707
989.6,-71.6729
989.7,-71.467
989.8,-71.6606
989.9,-71.8973
990,-71.3554
990.1,-71.7269
990.2,-72.0438
990.3,-71.6659
990.4,-71.8478
990.5,-71.5154
990.6,-72.0616
990.7,-71.1687
990.8,-70.3551
990.9,-71.3564
991,-71.2918
991.1,-71.3888
991.2,-71.2999
991.3,-71.3604
991.4,-71.0676
991.5,-70.9116
991.6,-70.2249
991.7,-72.7157
991.8,-72.1916
991.9,-71.5856
992,-71.9612
992.1,-71.0841
992.2,-71.4297
992.3,-71.8934
992.4,-71.4645
992.5,-71.3046
992.6,-71.5793
992.7,-71.2852
992.8,-71.3393
992.9,-71.2497
993,-71.1622
993.1,-71.1457
993.2,-71.665
993.3,-70.2451
993.4,-71.3554
993.5,-71.1337
993.6,-71.2924
993.7,-71.0198
993.8,-70.9223
993.9,-71.1096
994,-71.199
994.1,-70.76
994.2,-71.0452
994.3,-71.1038
994.4,-70.8843
994.5,-70.7398
994.6,-70.787
994.7,-70.3692
994.8,-70.6837
994.9,-70.6914
995,-70.3855
995.1,-70.2517
995.2,-70.2813
995.3,-70.2992
995.4,-69.7615
995.5,-70.1358
995.6,-69.6074
995.7,-69.421
995.8,-70.1095
995.9,-68.822
996,-68.616
996.1,-68.0107
996.2,-67.7636
996.3,-67.0863
996.4,-66.0349
996.5,-64.4198
996.6,-59.9514
996.7,-63.5326
996.8,-77.671
996.9,-71.4137
997,-69.1121
997.1,-67.7029
997.2,-66.2043
997.3,-64.9184
997.4,-63.4788
997.5,-61.967
997.6,-60.1379
997.7,-58.1107
997.8,-55.1717
997.9,-50.9992
998,-43.3171
998.1,-34.3132
998.2,-47.582
998.3,-52.4091
998.4,-55.2342
998.5,-57.3835
998.6,-58.744
998.7,-60.0234
998.8,-60.8924
998.9,-61.6293
999,-62.4157
999.1,-62.4831
999.2,-64.6688
999.3,-64.068
999.4,-64.3149
999.5,-64.5616
999.6,-64.5583
999.7,-64.7771
999.8,-64.8989
999.9,-64.9346
